Sample Weight (mg):	3.01
Heating Rate (C/s):	0.5
Combustor Temp (C):	900
N2 Flow Rate (cc/min):	80
O2 Flow Rate (cc/min):	20
Time (s)	Temperature (C)	N2 flow rate (cc/min)	O2 flow rate (cc/min)	Flow Rate (cc/min)	Oxygen (%)	HRR (W/g)	Heating rate (C/s)
0.000	89.684	80.002	20.008	100.006	20.180	2.366	-0.101
0.500	89.651	80.000	20.008	100.032	20.178	2.586	-0.117
1.000	89.636	80.000	20.008	100.070	20.172	3.149	-0.077
1.500	89.559	80.001	20.008	100.116	20.169	3.508	-0.070
2.000	89.505	80.002	20.007	100.171	20.162	4.202	-0.112
2.500	89.483	80.000	20.008	100.231	20.159	4.554	-0.104
3.000	89.421	80.002	20.008	100.287	20.155	4.997	-0.080
3.500	89.399	80.000	20.008	100.333	20.151	5.384	-0.084
4.000	89.304	80.000	20.008	100.371	20.149	5.579	-0.100
4.500	89.306	80.001	20.008	100.394	20.146	5.841	-0.105
5.000	89.278	80.001	20.008	100.405	20.143	6.209	-0.060
5.500	89.206	79.999	20.008	100.416	20.141	6.411	-0.063
6.000	89.143	80.001	20.008	100.431	20.138	6.707	-0.117
6.500	89.114	80.000	20.008	100.448	20.136	6.906	-0.114
7.000	89.054	80.001	20.008	100.465	20.135	7.057	-0.090
7.500	89.081	80.000	20.008	100.478	20.133	7.268	-0.061
8.000	89.030	80.001	20.008	100.481	20.130	7.519	-0.029
8.500	88.933	80.000	20.008	100.477	20.131	7.473	-0.086
9.000	88.912	80.001	20.008	100.470	20.128	7.742	-0.132
9.500	88.885	80.001	20.008	100.469	20.126	7.930	-0.083
10.000	88.843	80.000	20.008	100.474	20.126	7.998	-0.059
10.500	88.806	80.001	20.008	100.487	20.126	8.026	-0.074
11.000	88.787	79.999	20.008	100.495	20.125	8.069	-0.067
11.500	88.708	80.002	20.008	100.502	20.128	7.800	-0.077
12.000	88.728	80.000	20.008	100.497	20.124	8.164	-0.078
12.500	88.683	80.001	20.008	100.489	20.129	7.708	-0.042
13.000	88.700	80.000	20.008	100.476	20.126	7.981	-0.027
13.500	88.635	80.000	20.008	100.472	20.126	7.945	-0.038
14.000	88.648	80.000	20.008	100.473	20.127	7.915	-0.050
14.500	88.604	80.000	20.008	100.478	20.127	7.907	-0.042
15.000	88.575	80.000	20.008	100.486	20.124	8.148	-0.052
15.500	88.556	80.001	20.008	100.491	20.125	8.097	-0.060
16.000	88.584	79.999	20.008	100.490	20.123	8.311	-0.020
16.500	88.555	80.002	20.008	100.483	20.124	8.137	0.003
17.000	88.473	80.001	20.008	100.478	20.121	8.481	-0.056
17.500	88.501	80.001	20.008	100.478	20.122	8.385	-0.082
18.000	88.445	80.002	20.008	100.486	20.122	8.415	-0.041
18.500	88.478	80.000	20.008	100.504	20.121	8.521	-0.025
19.000	88.463	80.001	20.008	100.527	20.121	8.518	-0.003
19.500	88.501	80.001	20.008	100.545	20.120	8.619	0.020
20.000	88.446	79.999	20.008	100.551	20.119	8.663	0.002
20.500	88.442	80.002	20.008	100.551	20.122	8.382	-0.038
21.000	88.412	80.000	20.008	100.550	20.120	8.602	-0.046
21.500	88.438	80.002	20.008	100.551	20.119	8.695	-0.019
22.001	88.404	80.001	20.008	100.555	20.123	8.342	-0.007
22.500	88.414	80.000	20.008	100.561	20.118	8.815	-0.016
23.000	88.375	80.001	20.008	100.563	20.119	8.768	-0.026
23.500	88.365	80.001	20.008	100.559	20.116	8.985	-0.039
24.000	88.399	80.000	20.008	100.548	20.117	8.940	-0.012
24.500	88.377	80.001	20.008	100.532	20.117	8.952	0.018
25.000	88.359	80.001	20.008	100.520	20.117	8.896	-0.014
25.500	88.351	80.001	20.008	100.516	20.114	9.189	-0.033
26.000	88.409	80.001	20.008	100.519	20.116	9.064	0.012
26.500	88.406	80.000	20.008	100.529	20.116	8.999	0.052
27.000	88.423	80.001	20.008	100.544	20.112	9.419	0.034
27.500	88.448	80.000	20.008	100.556	20.114	9.257	0.028
28.000	88.429	80.001	20.008	100.563	20.111	9.553	0.024
28.500	88.441	80.001	20.008	100.562	20.110	9.693	-0.001
29.000	88.442	80.000	20.008	100.560	20.108	9.886	0.003
29.500	88.516	80.000	20.008	100.560	20.110	9.700	0.045
30.001	88.487	80.002	20.008	100.567	20.107	9.971	0.060
30.500	88.519	80.001	20.007	100.578	20.105	10.199	0.024
31.000	88.517	80.001	20.008	100.592	20.106	10.109	0.016
31.500	88.528	80.001	20.008	100.603	20.103	10.368	0.020
32.000	88.537	80.001	20.008	100.611	20.101	10.619	0.015
32.500	88.577	80.001	20.008	100.611	20.101	10.574	0.035
33.000	88.562	80.000	20.008	100.607	20.099	10.817	0.037
33.500	88.658	80.000	20.008	100.599	20.098	10.902	0.053
34.000	88.627	80.001	20.008	100.598	20.100	10.664	0.073
34.500	88.673	80.001	20.008	100.605	20.099	10.819	0.040
35.000	88.690	80.001	20.008	100.619	20.099	10.822	0.039
35.500	88.709	80.001	20.008	100.638	20.097	11.020	0.050
36.000	88.739	80.000	20.008	100.655	20.098	10.912	0.042
36.500	88.774	80.000	20.008	100.662	20.096	11.164	0.057
37.000	88.795	80.000	20.008	100.655	20.096	11.157	0.061
37.500	88.913	80.000	20.008	100.641	20.097	10.964	0.097
38.000	88.931	80.002	20.008	100.627	20.095	11.183	0.138
38.500	88.909	80.000	20.008	100.623	20.095	11.258	0.066
39.000	88.972	80.001	20.008	100.631	20.095	11.188	0.018
39.500	89.056	80.001	20.008	100.647	20.098	10.952	0.094
40.000	89.040	80.001	20.008	100.664	20.099	10.804	0.108
40.500	89.141	80.001	20.008	100.673	20.098	10.923	0.076
41.000	89.225	80.000	20.008	100.673	20.097	11.010	0.135
41.500	89.265	80.002	20.008	100.664	20.099	10.768	0.155
42.000	89.316	79.999	20.009	100.655	20.101	10.587	0.108
42.501	89.348	80.001	20.008	100.647	20.098	10.937	0.087
43.001	89.408	80.001	20.008	100.646	20.102	10.526	0.087
43.500	89.504	80.001	20.008	100.653	20.102	10.514	0.124
44.000	89.548	80.001	20.008	100.663	20.104	10.325	0.148
44.500	89.615	79.999	20.008	100.664	20.102	10.540	0.125
45.000	89.658	80.000	20.008	100.662	20.103	10.422	0.111
45.500	89.708	80.001	20.008	100.655	20.103	10.358	0.102
46.000	89.829	80.001	20.008	100.642	20.103	10.390	0.132
46.500	89.883	80.000	20.008	100.633	20.102	10.447	0.173
47.000	89.925	80.001	20.008	100.632	20.104	10.266	0.136
47.500	89.994	80.000	20.008	100.636	20.102	10.525	0.104
48.000	90.064	80.002	20.008	100.648	20.103	10.365	0.125
48.500	90.144	80.000	20.008	100.659	20.100	10.732	0.145
49.000	90.238	80.001	20.008	100.664	20.103	10.362	0.162
49.500	90.333	79.999	20.008	100.665	20.101	10.553	0.182
50.000	90.405	80.001	20.008	100.662	20.104	10.299	0.178
50.501	90.472	80.000	20.008	100.656	20.103	10.341	0.153
51.001	90.594	80.001	20.008	100.658	20.105	10.132	0.164
51.500	90.693	80.002	20.008	100.660	20.102	10.480	0.205
52.000	90.792	80.001	20.008	100.664	20.103	10.394	0.210
52.500	90.804	80.001	20.008	100.665	20.103	10.360	0.154
53.000	90.932	80.001	20.008	100.659	20.102	10.521	0.125
53.500	91.012	80.001	20.008	100.646	20.101	10.639	0.174
54.000	91.082	80.000	20.008	100.633	20.100	10.682	0.179
54.500	91.165	80.001	20.008	100.619	20.101	10.628	0.152
55.000	91.305	80.000	20.008	100.611	20.100	10.743	0.189
55.501	91.361	80.002	20.008	100.613	20.098	10.865	0.209
56.001	91.506	80.001	20.008	100.620	20.101	10.634	0.198
56.500	91.565	80.001	20.008	100.628	20.099	10.821	0.202
57.000	91.656	80.000	20.008	100.637	20.099	10.808	0.177
57.501	91.758	80.001	20.008	100.644	20.096	11.166	0.172
58.001	91.862	80.001	20.008	100.641	20.094	11.347	0.200
58.500	91.984	80.001	20.008	100.633	20.099	10.819	0.216
59.000	92.063	80.001	20.008	100.625	20.097	11.018	0.213
59.500	92.176	80.001	20.008	100.618	20.097	10.965	0.197
60.000	92.295	80.000	20.008	100.618	20.098	10.935	0.212
60.500	92.347	80.002	20.008	100.629	20.094	11.325	0.201
61.000	92.452	80.001	20.008	100.640	20.094	11.348	0.164
61.500	92.524	80.000	20.008	100.648	20.091	11.637	0.167
62.000	92.659	80.002	20.008	100.652	20.093	11.480	0.192
62.501	92.802	80.000	20.008	100.646	20.092	11.546	0.243
63.001	92.886	80.000	20.008	100.638	20.092	11.580	0.253
63.500	92.979	80.003	20.008	100.638	20.091	11.599	0.202
64.000	93.116	80.000	20.008	100.646	20.093	11.403	0.203
64.500	93.209	80.000	20.008	100.660	20.090	11.743	0.229
65.001	93.341	80.000	20.008	100.682	20.090	11.700	0.227
65.501	93.475	80.002	20.008	100.696	20.090	11.744	0.246
66.000	93.595	80.000	20.008	100.698	20.088	11.962	0.260
66.500	93.718	80.001	20.008	100.692	20.088	11.968	0.249
67.000	93.861	80.001	20.008	100.680	20.089	11.830	0.254
67.500	93.972	80.002	20.008	100.668	20.089	11.801	0.260
68.000	94.075	80.002	20.008	100.666	20.090	11.697	0.234
68.501	94.183	80.000	20.008	100.673	20.091	11.670	0.213
69.001	94.304	80.001	20.008	100.685	20.093	11.466	0.220
69.500	94.408	80.001	20.008	100.695	20.093	11.469	0.227
70.000	94.564	80.001	20.008	100.702	20.091	11.694	0.242
70.500	94.704	80.001	20.008	100.702	20.092	11.535	0.278
71.000	94.845	80.002	20.008	100.691	20.090	11.695	0.289
71.501	94.989	80.001	20.008	100.682	20.091	11.609	0.283
72.001	95.095	80.001	20.008	100.680	20.091	11.671	0.268
72.500	95.275	80.000	20.008	100.686	20.092	11.530	0.269
73.001	95.390	80.001	20.008	100.695	20.089	11.887	0.290
73.501	95.523	79.999	20.008	100.710	20.092	11.549	0.271
74.000	95.648	80.002	20.008	100.719	20.089	11.842	0.253
74.500	95.840	80.000	20.008	100.718	20.090	11.793	0.287
75.000	95.978	80.001	20.008	100.710	20.087	12.051	0.323
75.500	96.113	80.001	20.008	100.694	20.089	11.891	0.302
76.000	96.268	80.001	20.008	100.678	20.087	12.060	0.282
76.500	96.401	80.000	20.008	100.671	20.088	11.933	0.289
77.000	96.541	80.004	20.008	100.672	20.086	12.136	0.281
77.500	96.716	80.000	20.008	100.677	20.086	12.175	0.294
78.000	96.808	80.002	20.008	100.685	20.087	12.049	0.291
78.501	96.995	80.001	20.008	100.692	20.083	12.464	0.273
79.001	97.147	80.000	20.008	100.687	20.085	12.275	0.309
79.500	97.283	80.002	20.008	100.678	20.084	12.329	0.314
80.000	97.497	80.000	20.008	100.668	20.086	12.174	0.319
80.501	97.602	80.002	20.008	100.665	20.085	12.260	0.335
81.001	97.747	80.001	20.008	100.666	20.082	12.548	0.285
81.500	97.922	80.000	20.008	100.675	20.083	12.506	0.285
82.001	98.095	80.002	20.008	100.686	20.084	12.380	0.334
82.501	98.262	80.000	20.008	100.694	20.087	12.055	0.344
83.001	98.420	80.001	20.008	100.696	20.084	12.396	0.333
83.500	98.566	80.002	20.008	100.692	20.087	12.089	0.314
84.000	98.791	80.001	20.008	100.685	20.085	12.263	0.337
84.500	98.908	80.002	20.008	100.681	20.084	12.341	0.357
85.001	99.136	80.000	20.008	100.684	20.087	12.092	0.343
85.501	99.268	80.001	20.008	100.690	20.085	12.226	0.352
86.000	99.492	80.003	20.008	100.702	20.083	12.438	0.359
86.500	99.654	80.001	20.008	100.714	20.086	12.171	0.371
87.000	99.804	80.001	20.008	100.719	20.085	12.273	0.348
87.500	99.965	80.001	20.008	100.715	20.086	12.118	0.312
88.000	100.154	80.001	20.008	100.708	20.086	12.211	0.331
88.500	100.361	80.001	20.008	100.699	20.086	12.175	0.373
89.000	100.557	80.000	20.008	100.693	20.084	12.335	0.399
89.500	100.713	80.001	20.008	100.697	20.085	12.314	0.377
90.000	100.941	80.001	20.008	100.705	20.085	12.308	0.368
90.500	101.073	80.000	20.008	100.712	20.085	12.287	0.372
91.000	101.261	80.001	20.008	100.716	20.086	12.131	0.340
91.500	101.467	80.001	20.008	100.713	20.086	12.136	0.357
92.000	101.656	80.001	20.008	100.699	20.083	12.433	0.394
92.501	101.824	80.001	20.008	100.689	20.085	12.265	0.376
93.001	102.018	80.000	20.008	100.685	20.085	12.235	0.360
93.500	102.226	80.000	20.008	100.689	20.084	12.358	0.382
94.000	102.413	80.001	20.008	100.699	20.084	12.423	0.398
94.500	102.610	80.000	20.008	100.711	20.086	12.202	0.390
95.000	102.850	80.002	20.008	100.714	20.085	12.224	0.410
95.501	103.025	80.001	20.008	100.711	20.088	11.970	0.426
96.001	103.232	80.001	20.008	100.703	20.086	12.148	0.399
96.500	103.447	80.000	20.008	100.695	20.086	12.133	0.402
97.000	103.667	80.000	20.008	100.692	20.086	12.154	0.428
97.500	103.874	80.002	20.008	100.697	20.084	12.333	0.431
98.000	104.069	80.001	20.008	100.699	20.083	12.473	0.414
98.500	104.309	80.001	20.008	100.700	20.085	12.279	0.419
99.000	104.512	80.001	20.008	100.700	20.086	12.133	0.440
99.500	104.739	80.000	20.007	100.697	20.085	12.251	0.436
100.000	104.927	80.001	20.008	100.687	20.085	12.290	0.422
100.500	105.134	80.000	20.008	100.684	20.086	12.196	0.405
101.000	105.394	80.001	20.008	100.686	20.084	12.325	0.431
101.501	105.557	80.001	20.008	100.694	20.085	12.297	0.445
102.001	105.790	80.000	20.008	100.702	20.082	12.601	0.409
102.501	105.989	80.000	20.008	100.715	20.085	12.290	0.414
103.001	106.216	80.001	20.008	100.719	20.083	12.528	0.429
103.500	106.452	80.001	20.008	100.713	20.082	12.574	0.445
104.000	106.671	80.001	20.008	100.699	20.083	12.482	0.459
104.500	106.842	80.000	20.008	100.687	20.084	12.339	0.423
105.000	107.079	80.001	20.008	100.678	20.086	12.132	0.399
105.500	107.306	80.000	20.008	100.675	20.084	12.325	0.436
106.000	107.498	80.002	20.008	100.682	20.083	12.481	0.441
106.500	107.686	80.001	20.008	100.695	20.082	12.589	0.399
107.000	107.996	80.001	20.008	100.700	20.086	12.176	0.439
107.500	108.196	80.001	20.009	100.700	20.085	12.263	0.504
108.000	108.376	80.001	20.008	100.700	20.085	12.271	0.445
108.501	108.634	80.001	20.008	100.696	20.087	12.105	0.409
109.001	108.844	80.000	20.008	100.690	20.087	12.108	0.453
109.500	109.054	80.002	20.008	100.697	20.086	12.204	0.444
110.000	109.310	80.000	20.008	100.704	20.087	12.085	0.444
110.500	109.555	80.001	20.008	100.711	20.086	12.191	0.483
111.000	109.803	80.001	20.008	100.719	20.086	12.191	0.496
111.500	110.022	80.001	20.008	100.720	20.087	12.032	0.480
112.000	110.261	80.002	20.008	100.713	20.086	12.181	0.463
112.500	110.465	80.000	20.008	100.704	20.085	12.234	0.451
113.001	110.729	80.001	20.008	100.697	20.086	12.173	0.456
113.501	110.992	80.001	20.008	100.691	20.086	12.194	0.498
114.000	111.175	80.001	20.008	100.697	20.084	12.351	0.487
114.500	111.423	80.001	20.007	100.705	20.086	12.191	0.439
115.000	111.685	80.001	20.008	100.716	20.087	12.069	0.470
115.500	111.897	80.000	20.008	100.720	20.086	12.125	0.492
116.000	112.148	80.002	20.008	100.718	20.084	12.363	0.468
116.500	112.411	80.001	20.008	100.710	20.087	12.085	0.489
117.000	112.607	80.001	20.008	100.702	20.084	12.390	0.486
117.500	112.856	80.000	20.008	100.699	20.084	12.424	0.451
118.001	113.096	80.001	20.008	100.703	20.085	12.323	0.467
118.501	113.358	80.002	20.008	100.710	20.083	12.482	0.496
119.000	113.649	80.000	20.008	100.712	20.082	12.534	0.528
119.500	113.812	80.001	20.008	100.711	20.087	12.041	0.503
120.000	114.127	80.001	20.008	100.707	20.082	12.547	0.466
120.501	114.354	80.001	20.008	100.697	20.085	12.254	0.510
121.001	114.586	80.001	20.008	100.685	20.084	12.360	0.500
121.500	114.794	80.001	20.008	100.685	20.086	12.214	0.450
122.001	115.124	80.001	20.008	100.688	20.084	12.348	0.489
122.501	115.368	80.002	20.008	100.695	20.087	12.103	0.556
123.001	115.623	80.000	20.008	100.700	20.088	12.006	0.537
123.501	115.883	80.002	20.008	100.704	20.085	12.310	0.507
124.000	116.121	80.001	20.008	100.702	20.087	12.102	0.506
124.500	116.419	80.001	20.008	100.696	20.087	12.025	0.518
125.000	116.663	80.001	20.008	100.689	20.087	12.086	0.539
125.500	116.915	80.001	20.008	100.689	20.088	11.941	0.519
126.000	117.170	80.001	20.008	100.697	20.087	12.021	0.501
126.500	117.416	80.001	20.008	100.707	20.087	12.085	0.504
127.000	117.675	80.002	20.008	100.714	20.087	12.038	0.504
127.500	117.944	80.000	20.008	100.715	20.089	11.829	0.516
128.000	118.205	80.002	20.008	100.712	20.088	12.005	0.529
128.500	118.444	80.003	20.008	100.704	20.091	11.636	0.515
129.000	118.749	80.002	20.008	100.696	20.090	11.795	0.522
129.500	118.958	80.002	20.008	100.697	20.090	11.730	0.529
130.000	119.258	80.000	20.008	100.705	20.090	11.712	0.512
130.500	119.509	80.002	20.008	100.713	20.087	12.011	0.530
131.000	119.777	80.000	20.008	100.717	20.088	11.915	0.535
131.500	120.016	80.001	20.008	100.716	20.090	11.754	0.513
132.000	120.298	80.001	20.008	100.710	20.090	11.765	0.514
132.500	120.571	80.001	20.008	100.700	20.089	11.798	0.538
133.000	120.821	80.000	20.008	100.692	20.090	11.775	0.539
133.501	121.076	80.002	20.008	100.689	20.091	11.689	0.514
134.000	121.377	80.000	20.008	100.697	20.092	11.494	0.530
134.500	121.576	80.002	20.008	100.704	20.092	11.552	0.528
135.000	121.883	80.000	20.008	100.706	20.091	11.646	0.503
135.500	122.189	80.002	20.008	100.706	20.090	11.724	0.560
136.000	122.464	80.001	20.008	100.705	20.093	11.455	0.597
136.500	122.726	80.000	20.008	100.697	20.094	11.373	0.559
137.000	123.014	80.001	20.008	100.693	20.095	11.272	0.543
137.500	123.284	80.001	20.008	100.700	20.091	11.619	0.554
138.000	123.538	80.002	20.008	100.708	20.093	11.447	0.541
138.500	123.799	80.000	20.008	100.716	20.092	11.519	0.519
139.000	124.101	80.001	20.008	100.722	20.092	11.560	0.539
139.500	124.389	80.001	20.008	100.720	20.095	11.240	0.576
140.000	124.631	80.002	20.008	100.710	20.095	11.226	0.560
140.500	124.943	80.001	20.008	100.699	20.096	11.094	0.542
141.000	125.154	80.001	20.008	100.690	20.096	11.106	0.539
141.500	125.488	80.003	20.008	100.689	20.094	11.283	0.534
142.000	125.732	80.000	20.008	100.694	20.095	11.231	0.561
142.500	125.965	80.000	20.008	100.697	20.095	11.275	0.528
143.000	126.257	80.002	20.008	100.695	20.096	11.160	0.502
143.500	126.542	80.000	20.007	100.688	20.095	11.198	0.551
144.000	126.906	80.002	20.008	100.677	20.094	11.351	0.613
144.500	127.165	80.001	20.008	100.664	20.096	11.156	0.636
145.000	127.425	80.001	20.008	100.656	20.095	11.262	0.571
145.500	127.690	80.001	20.008	100.659	20.097	11.052	0.522
146.000	128.002	80.001	20.008	100.667	20.093	11.482	0.551
146.500	128.238	80.000	20.007	100.674	20.096	11.116	0.563
147.000	128.518	80.002	20.008	100.683	20.094	11.274	0.532
147.500	128.834	80.001	20.008	100.684	20.096	11.148	0.556
148.000	129.126	80.000	20.008	100.677	20.095	11.237	0.603
148.500	129.379	80.001	20.008	100.669	20.095	11.204	0.576
149.000	129.681	80.001	20.008	100.666	20.095	11.187	0.550
149.500	129.912	80.000	20.008	100.665	20.098	10.943	0.544
150.000	130.224	80.002	20.008	100.669	20.097	11.039	0.539
150.500	130.530	80.001	20.008	100.676	20.097	11.037	0.581
151.000	130.808	80.001	20.008	100.678	20.097	11.042	0.600
151.500	131.077	80.001	20.008	100.673	20.097	10.973	0.565
152.000	131.394	80.000	20.008	100.665	20.098	10.933	0.567
152.500	131.707	80.000	20.008	100.655	20.097	11.006	0.609
153.000	131.966	80.000	20.008	100.648	20.098	10.880	0.601
153.500	132.223	80.000	20.007	100.654	20.097	11.040	0.544
154.000	132.480	80.001	20.008	100.662	20.098	10.939	0.515
154.500	132.785	80.001	20.008	100.672	20.096	11.143	0.538
155.000	133.088	79.999	20.008	100.679	20.097	11.043	0.585
155.500	133.406	80.000	20.008	100.679	20.097	11.020	0.614
156.000	133.693	80.000	20.008	100.669	20.097	10.964	0.613
156.500	133.987	80.001	20.008	100.654	20.098	10.935	0.593
157.000	134.266	80.002	20.008	100.644	20.096	11.161	0.577
157.500	134.570	80.000	20.008	100.639	20.098	10.935	0.579
158.000	134.850	80.000	20.008	100.642	20.098	10.863	0.583
158.500	135.159	80.001	20.008	100.648	20.100	10.688	0.586
159.000	135.422	80.001	20.008	100.655	20.100	10.730	0.580
159.500	135.722	80.001	20.008	100.657	20.099	10.846	0.567
160.000	135.966	80.001	20.008	100.649	20.102	10.507	0.554
160.500	136.242	80.000	20.008	100.640	20.099	10.810	0.532
161.000	136.545	80.001	20.008	100.635	20.101	10.584	0.549
161.500	136.846	80.000	20.008	100.634	20.100	10.685	0.592
162.000	137.102	80.002	20.008	100.634	20.099	10.774	0.581
162.500	137.390	80.000	20.008	100.644	20.097	10.960	0.550
163.000	137.677	80.001	20.008	100.656	20.100	10.719	0.559
163.500	137.981	80.001	20.008	100.659	20.100	10.670	0.582
164.000	138.250	80.000	20.007	100.660	20.101	10.567	0.582
164.500	138.572	80.001	20.008	100.660	20.102	10.485	0.582
165.000	138.806	80.000	20.008	100.657	20.099	10.810	0.574
165.500	139.073	80.002	20.008	100.651	20.098	10.896	0.528
166.000	139.373	80.000	20.008	100.656	20.099	10.840	0.534
166.500	139.666	80.001	20.008	100.663	20.101	10.620	0.580
167.000	139.975	80.000	20.008	100.671	20.102	10.484	0.598
167.500	140.231	80.000	20.008	100.679	20.099	10.804	0.583
168.000	140.537	80.001	20.008	100.687	20.101	10.626	0.563
168.500	140.804	80.000	20.008	100.682	20.103	10.383	0.567
169.000	141.121	80.001	20.008	100.676	20.103	10.409	0.579
169.500	141.377	80.001	20.008	100.667	20.104	10.259	0.578
170.000	141.668	80.001	20.008	100.659	20.105	10.171	0.560
