Sample Weight (mg):	1.98
Heating Rate (C/s):	0.5
Combustor Temp (C):	900
N2 Flow Rate (cc/min):	80
O2 Flow Rate (cc/min):	20
Time (s)	Temperature (C)	N2 flow rate (cc/min)	O2 flow rate (cc/min)	Flow Rate (cc/min)	Oxygen (%)	HRR (W/g)	Heating rate (C/s)
0.000	88.052	80.000	20.008	100.152	20.127	12.137	-0.081
0.500	88.042	80.000	20.007	100.159	20.126	12.182	-0.109
1.000	87.967	79.999	20.007	100.167	20.125	12.407	-0.091
1.500	87.921	80.001	20.007	100.173	20.126	12.290	-0.103
2.000	87.897	80.000	20.007	100.173	20.125	12.379	-0.096
2.500	87.905	79.999	20.007	100.169	20.128	11.980	-0.043
3.000	87.805	80.001	20.007	100.161	20.127	12.011	-0.054
3.500	87.763	79.999	20.008	100.153	20.126	12.193	-0.117
4.000	87.740	80.000	20.007	100.153	20.126	12.271	-0.103
4.501	87.692	80.000	20.007	100.160	20.128	11.982	-0.068
5.000	87.673	79.999	20.007	100.173	20.128	11.878	-0.069
5.500	87.636	80.000	20.007	100.189	20.129	11.704	-0.061
6.000	87.598	80.000	20.007	100.208	20.131	11.463	-0.065
6.500	87.553	80.000	20.007	100.224	20.131	11.482	-0.079
7.000	87.533	80.000	20.007	100.236	20.133	11.057	-0.074
7.500	87.543	79.999	20.007	100.242	20.135	10.851	-0.038
8.000	87.472	80.000	20.008	100.244	20.134	10.982	-0.036
8.500	87.479	80.000	20.007	100.241	20.134	11.007	-0.063
9.000	87.472	79.999	20.008	100.235	20.137	10.530	-0.032
9.500	87.430	80.000	20.008	100.227	20.135	10.854	-0.025
10.000	87.416	79.999	20.008	100.224	20.134	10.955	-0.053
10.500	87.396	80.000	20.008	100.223	20.133	11.108	-0.045
11.001	87.371	79.999	20.007	100.228	20.133	11.060	-0.039
11.501	87.312	80.000	20.007	100.235	20.132	11.226	-0.064
12.000	87.266	79.999	20.007	100.243	20.128	11.909	-0.094
12.500	87.255	80.000	20.008	100.245	20.131	11.519	-0.081
13.000	87.223	79.998	20.007	100.242	20.130	11.543	-0.050
13.501	87.192	80.000	20.007	100.230	20.129	11.778	-0.053
14.001	87.194	79.999	20.008	100.216	20.130	11.640	-0.045
14.501	87.175	79.999	20.008	100.208	20.129	11.811	-0.023
15.000	87.095	80.000	20.008	100.206	20.128	11.868	-0.058
15.500	87.136	79.999	20.007	100.212	20.130	11.556	-0.070
16.000	87.117	80.002	20.007	100.224	20.129	11.685	-0.009
16.500	87.117	80.001	20.009	100.239	20.129	11.810	0.002
17.000	87.066	80.003	20.011	100.250	20.128	11.947	-0.035
17.500	87.068	80.000	20.010	100.258	20.126	12.174	-0.050
18.000	87.060	80.001	20.008	100.258	20.126	12.205	-0.027
18.500	87.054	79.999	20.007	100.251	20.127	12.123	-0.010
19.000	87.003	79.999	20.008	100.243	20.129	11.774	-0.036
19.500	87.033	80.000	20.007	100.235	20.129	11.794	-0.039
20.000	87.028	80.000	20.007	100.229	20.128	11.934	0.002
20.500	86.992	80.000	20.008	100.231	20.128	11.927	-0.009
21.000	86.974	79.999	20.007	100.242	20.126	12.233	-0.048
21.500	86.986	80.001	20.008	100.253	20.128	11.961	-0.030
22.000	86.996	79.999	20.007	100.260	20.125	12.424	0.008
22.500	86.990	80.002	20.007	100.267	20.120	13.114	0.013
23.000	87.042	79.999	20.008	100.267	20.124	12.591	0.025
23.500	86.955	79.999	20.008	100.262	20.121	12.999	0.006
24.000	86.966	80.000	20.007	100.251	20.120	13.200	-0.055
24.500	86.986	80.000	20.007	100.245	20.121	13.093	-0.023
25.000	87.016	79.999	20.008	100.239	20.120	13.213	0.041
25.500	86.965	80.000	20.007	100.238	20.120	13.118	0.015
26.000	86.959	79.999	20.008	100.243	20.116	13.788	-0.040
26.500	87.011	79.999	20.008	100.257	20.116	13.829	-0.006
27.000	86.990	79.999	20.008	100.271	20.117	13.705	0.039
27.500	86.973	79.999	20.007	100.281	20.120	13.154	-0.003
28.000	86.981	79.999	20.008	100.282	20.118	13.495	-0.024
28.500	86.967	80.001	20.007	100.273	20.117	13.683	-0.008
29.000	87.038	79.998	20.008	100.259	20.121	13.091	0.026
29.500	87.030	79.999	20.008	100.246	20.118	13.512	0.060
30.001	87.023	79.999	20.008	100.242	20.118	13.528	0.024
30.500	87.060	80.000	20.007	100.244	20.116	13.792	0.007
31.000	87.112	79.998	20.008	100.253	20.116	13.754	0.059
31.500	87.122	80.000	20.007	100.268	20.117	13.699	0.075
32.000	87.115	79.999	20.007	100.281	20.116	13.873	0.033
32.500	87.129	79.999	20.007	100.281	20.115	13.950	0.005
33.000	87.194	79.999	20.007	100.280	20.116	13.735	0.043
33.500	87.175	79.999	20.008	100.273	20.121	13.016	0.063
34.000	87.273	79.999	20.007	100.260	20.120	13.225	0.063
34.500	87.273	79.999	20.008	100.249	20.120	13.180	0.088
35.001	87.301	79.999	20.008	100.240	20.118	13.495	0.063
35.501	87.340	79.999	20.008	100.239	20.120	13.161	0.048
36.000	87.346	79.999	20.008	100.242	20.117	13.594	0.056
36.500	87.380	80.000	20.007	100.248	20.121	13.085	0.042
37.000	87.419	80.000	20.007	100.252	20.118	13.573	0.056
37.501	87.427	79.999	20.008	100.255	20.117	13.697	0.060
38.001	87.458	79.999	20.007	100.251	20.118	13.435	0.043
38.500	87.485	79.999	20.008	100.243	20.119	13.303	0.048
39.000	87.505	80.000	20.007	100.232	20.119	13.415	0.052
39.500	87.547	79.999	20.008	100.218	20.116	13.801	0.055
40.000	87.533	80.000	20.008	100.213	20.116	13.772	0.046
40.500	87.603	80.000	20.007	100.210	20.118	13.552	0.042
41.000	87.626	79.999	20.008	100.212	20.119	13.395	0.074
41.500	87.681	80.000	20.007	100.222	20.118	13.462	0.085
42.000	87.701	79.999	20.007	100.235	20.116	13.749	0.077
42.501	87.788	79.999	20.007	100.239	20.114	14.208	0.091
43.001	87.825	80.000	20.008	100.239	20.116	13.769	0.115
43.500	87.846	79.999	20.007	100.236	20.116	13.784	0.091
44.000	87.924	80.000	20.008	100.226	20.116	13.836	0.079
44.500	87.936	80.000	20.007	100.219	20.115	13.964	0.095
45.000	88.020	79.999	20.008	100.218	20.116	13.887	0.093
45.501	88.011	80.000	20.007	100.225	20.113	14.331	0.085
46.001	88.075	80.000	20.008	100.235	20.111	14.561	0.065
46.501	88.141	80.000	20.007	100.252	20.113	14.283	0.093
47.001	88.134	79.999	20.008	100.269	20.111	14.562	0.095
47.500	88.157	80.000	20.007	100.284	20.112	14.533	0.037
48.000	88.296	80.000	20.007	100.288	20.107	15.208	0.088
48.500	88.322	79.999	20.007	100.287	20.107	15.333	0.163
49.001	88.357	80.000	20.007	100.279	20.108	15.088	0.113
49.501	88.421	80.001	20.008	100.272	20.106	15.448	0.080
50.001	88.521	80.001	20.007	100.269	20.107	15.260	0.132
50.501	88.515	80.000	20.007	100.275	20.106	15.488	0.129
51.001	88.567	79.999	20.008	100.287	20.105	15.608	0.070
51.501	88.622	80.000	20.007	100.303	20.104	15.699	0.076
52.000	88.671	80.001	20.007	100.318	20.102	16.024	0.106
52.500	88.748	79.999	20.007	100.330	20.103	15.862	0.115
53.000	88.832	80.001	20.007	100.339	20.100	16.368	0.143
53.500	88.834	79.999	20.007	100.340	20.096	16.937	0.124
54.000	88.980	80.000	20.008	100.340	20.099	16.474	0.117
54.500	88.994	80.000	20.008	100.340	20.099	16.563	0.154
55.001	89.059	79.999	20.007	100.341	20.098	16.635	0.119
55.501	89.140	80.000	20.007	100.349	20.099	16.535	0.112
56.000	89.218	80.000	20.007	100.362	20.098	16.706	0.153
56.500	89.290	80.001	20.007	100.377	20.095	17.105	0.154
57.000	89.385	79.999	20.007	100.388	20.096	17.056	0.158
57.500	89.475	80.000	20.008	100.394	20.097	16.880	0.176
58.000	89.480	79.999	20.007	100.394	20.095	17.104	0.140
58.500	89.556	80.000	20.007	100.391	20.093	17.424	0.088
59.000	89.709	80.000	20.008	100.383	20.091	17.751	0.154
59.500	89.723	80.000	20.008	100.384	20.093	17.512	0.198
60.001	89.910	79.999	20.007	100.392	20.091	17.756	0.184
60.501	89.923	80.000	20.007	100.403	20.092	17.590	0.200
61.000	90.036	79.999	20.007	100.418	20.091	17.739	0.163
61.500	90.092	80.000	20.006	100.427	20.094	17.310	0.148
62.000	90.234	80.000	20.008	100.425	20.092	17.579	0.184
62.500	90.428	80.000	20.007	100.417	20.093	17.542	0.267
63.000	90.285	79.998	20.008	100.407	20.093	17.554	0.193
63.500	90.821	80.001	20.008	100.392	20.093	17.431	0.222
64.000	90.577	79.999	20.007	100.387	20.090	17.931	0.342
64.501	90.772	79.999	20.008	100.394	20.091	17.840	0.121
65.001	90.583	79.999	20.008	100.402	20.090	17.911	-0.021
65.500	90.993	80.000	20.007	100.409	20.092	17.656	0.113
66.000	91.001	80.000	20.007	100.417	20.090	18.026	0.320
66.500	91.052	79.999	20.007	100.420	20.091	17.737	0.239
67.000	91.392	80.001	20.007	100.412	20.089	18.152	0.225
67.501	91.306	80.000	20.007	100.404	20.089	18.164	0.323
68.001	91.484	79.999	20.007	100.397	20.089	18.116	0.174
68.501	91.625	80.000	20.008	100.396	20.089	18.044	0.205
69.001	91.692	80.000	20.008	100.398	20.088	18.334	0.263
69.501	91.814	79.999	20.007	100.404	20.089	18.142	0.199
70.001	92.016	79.999	20.007	100.412	20.085	18.805	0.257
70.501	92.136	80.000	20.007	100.420	20.088	18.335	0.323
71.000	92.209	80.000	20.007	100.419	20.085	18.828	0.258
71.500	92.400	80.000	20.007	100.415	20.085	18.670	0.229
72.000	92.445	79.999	20.008	100.408	20.087	18.508	0.250
72.500	92.607	80.000	20.008	100.402	20.084	18.918	0.221
73.000	92.754	80.000	20.007	100.401	20.085	18.743	0.258
73.500	92.897	80.000	20.008	100.407	20.086	18.625	0.299
74.000	93.072	79.998	20.007	100.417	20.082	19.293	0.304
74.500	93.169	80.001	20.007	100.432	20.086	18.572	0.295
75.000	93.315	80.000	20.008	100.440	20.084	18.958	0.258
75.500	93.421	80.000	20.007	100.440	20.085	18.829	0.248
76.001	93.591	80.000	20.007	100.429	20.083	19.059	0.264
76.501	93.735	80.000	20.008	100.415	20.081	19.361	0.294
77.000	93.868	80.000	20.007	100.405	20.081	19.306	0.295
77.500	94.062	79.998	20.008	100.403	20.081	19.372	0.302
78.000	94.206	80.000	20.008	100.406	20.081	19.394	0.333
78.501	94.358	80.001	20.007	100.421	20.081	19.301	0.317
79.001	94.505	80.000	20.007	100.436	20.081	19.407	0.297
79.500	94.655	80.000	20.007	100.444	20.080	19.499	0.298
80.000	94.798	80.001	20.008	100.444	20.080	19.470	0.295
80.500	94.997	79.999	20.008	100.440	20.079	19.698	0.317
81.000	95.124	79.999	20.007	100.432	20.079	19.680	0.334
81.501	95.280	80.000	20.008	100.425	20.078	19.815	0.305
82.001	95.439	80.000	20.007	100.418	20.079	19.740	0.298
82.500	95.608	79.999	20.008	100.425	20.081	19.355	0.322
83.000	95.783	80.000	20.008	100.434	20.077	19.941	0.337
83.500	95.922	80.001	20.007	100.441	20.078	19.802	0.329
84.000	96.115	79.999	20.007	100.446	20.079	19.673	0.323
84.500	96.316	80.001	20.007	100.446	20.077	20.048	0.362
85.000	96.412	80.000	20.007	100.437	20.078	19.913	0.345
85.500	96.559	79.999	20.008	100.428	20.079	19.663	0.270
86.000	96.728	79.999	20.008	100.421	20.076	20.213	0.280
86.500	96.877	80.000	20.007	100.420	20.075	20.383	0.317
87.000	97.073	80.000	20.007	100.428	20.077	20.004	0.332
87.500	97.243	79.999	20.007	100.437	20.075	20.250	0.356
88.000	97.428	80.001	20.007	100.445	20.077	20.052	0.360
88.500	97.586	79.999	20.007	100.452	20.073	20.689	0.348
89.000	97.799	80.000	20.008	100.447	20.077	20.059	0.357
89.500	97.957	80.000	20.008	100.437	20.076	20.114	0.372
90.000	98.173	80.000	20.008	100.430	20.075	20.258	0.372
90.501	98.347	80.000	20.007	100.422	20.077	20.061	0.381
91.001	98.531	80.000	20.008	100.416	20.077	20.033	0.374
91.501	98.711	79.999	20.007	100.423	20.076	20.103	0.361
92.001	98.920	80.001	20.007	100.433	20.074	20.446	0.376
92.501	99.089	80.000	20.007	100.441	20.076	20.131	0.383
93.001	99.279	80.000	20.007	100.446	20.073	20.664	0.369
93.500	99.475	80.000	20.008	100.447	20.072	20.795	0.373
94.000	99.660	80.001	20.008	100.441	20.072	20.793	0.383
94.500	99.893	80.000	20.008	100.433	20.073	20.623	0.399
95.000	100.004	80.000	20.008	100.424	20.075	20.298	0.381
95.500	100.243	80.001	20.007	100.421	20.074	20.458	0.347
96.001	100.395	80.000	20.008	100.428	20.076	20.233	0.371
96.501	100.632	80.000	20.007	100.437	20.079	19.754	0.390
97.000	100.841	80.001	20.007	100.442	20.077	20.004	0.418
97.500	101.042	79.999	20.007	100.443	20.078	19.895	0.428
98.000	101.214	80.001	20.008	100.436	20.078	19.932	0.391
98.500	101.431	80.000	20.008	100.423	20.078	19.787	0.381
99.000	101.668	80.001	20.008	100.414	20.079	19.739	0.422
99.501	101.859	80.000	20.007	100.414	20.079	19.668	0.441
100.001	102.015	79.999	20.007	100.422	20.076	20.129	0.387
100.501	102.287	79.999	20.007	100.435	20.076	20.120	0.387
101.000	102.414	80.001	20.007	100.447	20.077	20.045	0.414
101.500	102.667	80.000	20.007	100.455	20.077	20.069	0.390
102.000	102.834	79.999	20.007	100.450	20.078	19.799	0.400
102.500	103.071	79.999	20.007	100.440	20.080	19.613	0.412
103.000	103.247	80.001	20.007	100.425	20.080	19.536	0.408
103.500	103.506	80.000	20.007	100.410	20.079	19.632	0.424
104.000	103.769	80.000	20.008	100.401	20.080	19.507	0.479
104.500	103.935	80.001	20.007	100.401	20.080	19.574	0.476
105.000	104.137	80.001	20.008	100.411	20.082	19.286	0.399
105.500	104.356	80.002	20.007	100.422	20.080	19.557	0.394
106.000	104.593	80.000	20.007	100.429	20.078	19.783	0.438
106.501	104.821	80.000	20.007	100.431	20.077	19.993	0.461
107.001	105.029	80.001	20.007	100.423	20.082	19.264	0.451
107.500	105.253	80.000	20.007	100.410	20.079	19.714	0.434
108.000	105.473	80.001	20.008	100.405	20.080	19.546	0.438
108.500	105.654	80.000	20.008	100.406	20.078	19.787	0.423
109.000	105.943	80.000	20.008	100.413	20.079	19.704	0.436
109.500	106.115	80.000	20.007	100.428	20.081	19.441	0.465
110.000	106.383	80.000	20.007	100.442	20.082	19.278	0.451
110.500	106.548	79.999	20.007	100.449	20.082	19.288	0.437
111.001	106.836	80.001	20.007	100.451	20.082	19.215	0.443
111.501	107.011	79.999	20.007	100.443	20.081	19.365	0.458
112.000	107.252	80.000	20.007	100.439	20.080	19.565	0.439
112.500	107.480	80.001	20.008	100.434	20.084	18.979	0.442
113.000	107.697	80.000	20.007	100.429	20.083	19.120	0.457
113.500	107.989	80.001	20.007	100.435	20.084	18.978	0.477
114.000	108.203	80.001	20.007	100.444	20.080	19.551	0.508
114.501	108.458	79.999	20.008	100.448	20.081	19.380	0.487
115.001	108.720	80.001	20.007	100.454	20.084	18.866	0.492
115.500	108.909	80.000	20.007	100.460	20.083	18.995	0.484
116.000	109.158	79.999	20.007	100.459	20.080	19.555	0.445
116.501	109.368	80.001	20.008	100.453	20.082	19.243	0.448
117.001	109.629	80.001	20.007	100.447	20.082	19.245	0.465
117.500	109.840	80.001	20.008	100.447	20.081	19.322	0.472
118.000	110.123	79.999	20.007	100.446	20.083	19.117	0.483
118.500	110.328	80.001	20.008	100.449	20.082	19.169	0.491
119.000	110.593	80.002	20.007	100.459	20.080	19.620	0.479
119.501	110.817	79.999	20.007	100.471	20.079	19.718	0.480
120.001	111.081	80.000	20.007	100.471	20.081	19.345	0.488
120.500	111.316	80.001	20.008	100.465	20.082	19.160	0.493
121.000	111.547	80.000	20.008	100.457	20.080	19.526	0.483
121.501	111.785	80.001	20.007	100.441	20.082	19.157	0.468
122.001	112.092	80.001	20.007	100.427	20.080	19.538	0.507
122.500	112.272	80.001	20.008	100.420	20.080	19.580	0.516
123.001	112.591	79.999	20.007	100.421	20.081	19.320	0.493
123.501	112.860	80.001	20.007	100.423	20.081	19.360	0.543
124.000	113.065	80.000	20.007	100.425	20.082	19.192	0.531
124.500	113.259	80.000	20.007	100.425	20.079	19.742	0.436
125.000	113.560	80.000	20.008	100.419	20.079	19.667	0.447
125.500	113.797	80.000	20.007	100.416	20.079	19.651	0.516
126.000	114.105	80.000	20.007	100.418	20.078	19.782	0.541
126.501	114.298	80.000	20.008	100.425	20.079	19.771	0.523
127.001	114.589	80.000	20.007	100.434	20.079	19.662	0.493
127.501	114.848	80.000	20.007	100.447	20.080	19.471	0.517
128.000	115.068	80.001	20.008	100.452	20.080	19.559	0.514
128.500	115.333	80.000	20.007	100.448	20.082	19.186	0.482
129.000	115.594	80.000	20.008	100.438	20.082	19.148	0.506
129.500	115.865	79.999	20.008	100.429	20.080	19.562	0.529
130.000	116.133	80.001	20.008	100.425	20.083	19.129	0.535
130.500	116.392	79.999	20.008	100.427	20.079	19.671	0.533
131.000	116.672	80.001	20.008	100.436	20.083	19.101	0.533
131.500	116.936	80.000	20.007	100.449	20.081	19.436	0.542
132.000	117.141	80.002	20.007	100.461	20.080	19.473	0.506
132.500	117.365	80.000	20.007	100.465	20.082	19.168	0.449
133.000	117.674	80.001	20.008	100.459	20.078	19.849	0.481
133.500	117.963	79.999	20.008	100.451	20.079	19.678	0.565
134.000	118.193	80.001	20.008	100.443	20.080	19.548	0.558
134.500	118.492	79.999	20.007	100.438	20.080	19.602	0.524
135.000	118.680	80.001	20.008	100.438	20.078	19.840	0.508
135.500	118.994	80.000	20.007	100.444	20.080	19.489	0.494
136.000	119.225	80.001	20.008	100.448	20.080	19.609	0.523
136.500	119.526	79.999	20.008	100.450	20.079	19.626	0.539
137.000	119.809	80.000	20.007	100.443	20.077	19.971	0.558
137.500	120.000	80.001	20.007	100.435	20.080	19.564	0.529
138.001	120.264	80.000	20.008	100.428	20.082	19.280	0.464
138.500	120.550	80.000	20.007	100.432	20.084	18.907	0.503
139.000	120.837	80.000	20.008	100.436	20.083	19.110	0.562
139.500	121.059	80.001	20.007	100.445	20.082	19.233	0.541
140.000	121.348	79.999	20.007	100.451	20.082	19.213	0.510
140.500	121.588	80.001	20.007	100.451	20.083	19.035	0.520
141.000	121.855	80.000	20.008	100.442	20.082	19.285	0.518
141.500	122.173	80.000	20.008	100.433	20.084	18.953	0.546
142.000	122.477	80.000	20.007	100.425	20.083	19.050	0.604
142.500	122.729	80.001	20.007	100.422	20.083	19.085	0.589
143.000	122.938	80.000	20.007	100.428	20.082	19.234	0.509
143.500	123.229	80.000	20.007	100.432	20.081	19.422	0.480
144.000	123.535	80.001	20.007	100.439	20.081	19.387	0.548
144.500	123.846	80.000	20.008	100.445	20.083	19.070	0.607
145.000	124.115	80.000	20.007	100.446	20.084	18.958	0.599
145.500	124.350	80.001	20.007	100.441	20.084	18.902	0.542
146.000	124.648	80.000	20.008	100.437	20.084	18.969	0.518
146.500	124.894	80.000	20.008	100.434	20.083	19.071	0.538
147.000	125.221	80.001	20.007	100.434	20.081	19.303	0.558
147.500	125.432	80.001	20.007	100.437	20.082	19.191	0.556
148.000	125.719	79.999	20.007	100.442	20.083	19.085	0.518
148.500	125.988	80.000	20.007	100.442	20.084	18.914	0.527
149.000	126.262	80.001	20.008	100.440	20.084	18.827	0.550
149.501	126.566	80.001	20.008	100.426	20.084	18.872	0.560
150.000	126.846	80.001	20.008	100.410	20.085	18.707	0.581
150.500	127.114	79.999	20.008	100.399	20.084	18.893	0.566
151.000	127.383	80.001	20.009	100.400	20.085	18.653	0.542
151.500	127.630	80.000	20.007	100.405	20.085	18.739	0.526
152.000	127.973	80.000	20.007	100.420	20.087	18.398	0.553
152.500	128.200	80.001	20.008	100.429	20.089	18.152	0.580
153.000	128.496	79.999	20.008	100.433	20.085	18.707	0.546
153.500	128.809	80.000	20.007	100.431	20.087	18.353	0.566
154.000	129.117	79.999	20.007	100.424	20.087	18.479	0.615
154.500	129.344	80.001	20.008	100.416	20.085	18.728	0.578
155.000	129.688	80.001	20.007	100.417	20.086	18.628	0.553
155.500	129.861	80.000	20.008	100.427	20.087	18.408	0.545
156.000	130.248	80.000	20.007	100.435	20.086	18.593	0.539
156.500	130.539	80.001	20.009	100.442	20.087	18.450	0.618
157.000	130.774	79.999	20.007	100.450	20.088	18.343	0.602
157.500	131.064	79.999	20.006	100.456	20.089	18.135	0.525
158.001	131.392	80.000	20.007	100.446	20.087	18.441	0.572
158.500	131.629	80.001	20.008	100.431	20.089	18.058	0.592
159.000	131.877	80.000	20.009	100.417	20.088	18.315	0.525
159.500	132.195	80.001	20.008	100.409	20.086	18.520	0.525
160.000	132.482	80.000	20.007	100.412	20.089	18.091	0.586
160.500	132.826	80.001	20.007	100.421	20.088	18.291	0.618
161.000	133.081	80.000	20.007	100.425	20.088	18.284	0.615
161.500	133.385	80.000	20.007	100.423	20.086	18.625	0.579
162.000	133.638	80.001	20.008	100.408	20.086	18.618	0.558
162.500	133.929	80.000	20.008	100.379	20.084	18.948	0.551
163.000	134.204	80.000	20.007	100.357	20.086	18.574	0.555
163.500	134.499	80.000	20.008	100.351	20.085	18.808	0.568
164.000	134.781	80.000	20.008	100.354	20.088	18.193	0.573
164.500	135.137	80.000	20.008	100.367	20.088	18.293	0.607
165.000	135.344	80.001	20.007	100.382	20.086	18.537	0.601
165.500	135.684	79.999	20.007	100.389	20.086	18.527	0.555
166.000	135.958	80.000	20.007	100.391	20.085	18.672	0.581
166.500	136.245	80.001	20.007	100.391	20.087	18.347	0.587
167.000	136.538	80.000	20.008	100.385	20.087	18.469	0.570
167.500	136.886	80.000	20.008	100.379	20.087	18.392	0.610
168.000	137.141	80.001	20.008	100.380	20.090	18.019	0.622
168.500	137.396	80.000	20.007	100.382	20.089	18.171	0.556
169.000	137.723	80.001	20.007	100.390	20.088	18.276	0.546
169.500	137.974	79.999	20.007	100.391	20.088	18.310	0.580
