Sample Weight (mg):	2.01
Heating Rate (C/s):	0.5
Combustor Temp (C):	900
N2 Flow Rate (cc/min):	80
O2 Flow Rate (cc/min):	20
Time (s)	Temperature (C)	N2 flow rate (cc/min)	O2 flow rate (cc/min)	Flow Rate (cc/min)	Oxygen (%)	HRR (W/g)	Heating rate (C/s)
-0.001	86.426	80.004	20.011	100.210	20.058	3.081	-0.101
0.499	86.355	80.004	20.010	100.212	20.060	2.817	-0.104
0.999	86.294	80.005	20.010	100.208	20.063	2.237	-0.116
1.499	86.266	80.003	20.011	100.199	20.059	2.890	-0.111
1.999	86.202	80.005	20.011	100.191	20.061	2.587	-0.090
2.499	86.181	80.004	20.010	100.186	20.063	2.274	-0.089
2.999	86.154	80.004	20.010	100.185	20.062	2.396	-0.067
3.499	86.110	80.005	20.011	100.191	20.065	1.938	-0.059
3.999	86.059	80.003	20.010	100.199	20.060	2.716	-0.083
4.499	86.062	80.005	20.010	100.207	20.063	2.274	-0.072
4.999	86.036	80.005	20.010	100.215	20.060	2.702	-0.036
5.499	85.936	80.003	20.010	100.220	20.060	2.732	-0.075
5.999	85.898	80.004	20.011	100.213	20.063	2.303	-0.132
6.499	85.916	80.004	20.010	100.206	20.061	2.590	-0.079
6.999	85.865	80.005	20.011	100.199	20.061	2.643	-0.026
7.499	85.845	80.004	20.010	100.190	20.062	2.504	-0.052
7.999	85.856	80.005	20.010	100.184	20.064	2.188	-0.040
8.499	85.833	80.004	20.010	100.191	20.063	2.277	-0.011
8.999	85.791	80.004	20.010	100.198	20.063	2.386	-0.039
9.499	85.728	80.003	20.010	100.207	20.064	2.185	-0.084
9.999	85.772	80.006	20.010	100.216	20.064	2.205	-0.062
10.499	85.752	80.004	20.010	100.223	20.061	2.604	0.002
10.999	85.747	80.004	20.010	100.220	20.061	2.600	-0.001
11.499	85.724	80.005	20.010	100.212	20.063	2.241	-0.026
11.999	85.691	80.004	20.010	100.203	20.062	2.524	-0.042
12.499	85.700	80.004	20.010	100.194	20.059	2.883	-0.040
12.999	85.706	80.005	20.011	100.186	20.064	2.126	-0.005
13.499	85.674	80.004	20.010	100.183	20.059	2.999	-0.006
13.999	85.632	80.004	20.010	100.190	20.059	2.890	-0.050
14.499	85.615	80.004	20.010	100.199	20.058	3.029	-0.067
14.999	85.588	80.005	20.010	100.207	20.058	3.082	-0.051
15.499	85.575	80.004	20.010	100.220	20.059	2.890	-0.041
15.999	85.563	80.005	20.010	100.228	20.056	3.437	-0.032
16.499	85.546	80.005	20.010	100.227	20.057	3.292	-0.027
16.999	85.543	80.004	20.010	100.224	20.054	3.658	-0.025
17.499	85.500	80.003	20.010	100.216	20.054	3.727	-0.033
17.999	85.526	80.005	20.010	100.204	20.054	3.759	-0.032
18.499	85.550	80.005	20.010	100.195	20.052	4.079	0.016
18.999	85.513	80.003	20.010	100.188	20.055	3.611	0.018
19.499	85.495	80.004	20.010	100.189	20.054	3.631	-0.034
19.999	85.511	80.005	20.011	100.196	20.055	3.596	-0.029
20.499	85.533	80.005	20.010	100.204	20.057	3.194	0.018
20.999	85.535	80.004	20.010	100.213	20.057	3.244	0.032
21.499	85.450	80.005	20.009	100.222	20.055	3.514	-0.029
21.999	85.481	80.004	20.011	100.224	20.056	3.330	-0.068
22.499	85.445	80.003	20.010	100.224	20.054	3.728	-0.030
22.999	85.487	80.004	20.010	100.225	20.055	3.606	0.000
23.499	85.549	80.004	20.010	100.221	20.056	3.421	0.054
23.999	85.512	80.005	20.010	100.217	20.051	4.152	0.064
24.499	85.484	80.004	20.010	100.210	20.063	2.333	-0.020
24.999	85.498	80.004	20.010	100.209	20.063	2.382	-0.040
25.499	85.542	80.005	20.010	100.206	20.056	3.378	0.022
25.999	85.558	80.004	20.010	100.209	20.058	3.088	0.059
26.499	85.512	80.005	20.010	100.212	20.057	3.296	0.015
26.999	85.550	80.004	20.010	100.218	20.059	2.940	-0.019
27.499	85.526	80.003	20.010	100.220	20.057	3.168	0.003
27.999	85.545	80.005	20.010	100.222	20.059	2.914	0.004
28.499	85.580	80.005	20.011	100.222	20.059	2.977	0.025
28.999	85.587	80.004	20.010	100.217	20.057	3.240	0.049
29.499	85.577	80.004	20.010	100.211	20.058	3.092	0.019
29.999	85.608	80.005	20.010	100.203	20.054	3.678	0.008
30.499	85.599	80.005	20.010	100.194	20.059	2.999	0.022
30.999	85.587	80.005	20.011	100.187	20.057	3.273	0.001
31.499	85.613	80.004	20.010	100.184	20.056	3.382	-0.003
31.999	85.612	80.005	20.010	100.190	20.058	3.033	0.019
32.499	85.741	80.004	20.011	100.199	20.057	3.313	0.076
32.999	85.631	80.004	20.010	100.215	20.062	2.483	0.074
33.499	85.713	80.003	20.010	100.230	20.056	3.337	-0.004
33.999	85.695	80.004	20.011	100.245	20.057	3.251	0.018
34.499	85.709	80.004	20.011	100.249	20.059	2.994	0.030
34.999	85.799	80.004	20.010	100.248	20.057	3.198	0.050
35.499	85.783	80.004	20.010	100.240	20.057	3.181	0.089
35.999	85.844	80.005	20.011	100.227	20.065	1.971	0.060
36.499	85.829	80.005	20.011	100.212	20.070	1.282	0.045
36.999	85.899	80.005	20.010	100.201	20.069	1.312	0.050
37.499	85.857	80.004	20.010	100.196	20.069	1.368	0.041
37.999	85.908	80.004	20.011	100.195	20.069	1.434	0.018
38.499	85.929	80.003	20.010	100.200	20.069	1.313	0.041
38.999	85.907	80.004	20.010	100.214	20.067	1.616	0.036
39.499	85.985	80.006	20.010	100.230	20.064	2.177	0.027
39.999	85.966	80.004	20.010	100.239	20.058	3.127	0.057
40.499	85.971	80.004	20.010	100.248	20.056	3.364	0.023
41.000	86.040	80.003	20.011	100.248	20.057	3.232	0.030
41.500	86.147	80.004	20.010	100.243	20.058	3.156	0.124
41.999	86.155	80.005	20.011	100.235	20.057	3.281	0.145
42.499	86.164	80.004	20.011	100.231	20.056	3.443	0.066
42.999	86.159	80.005	20.010	100.223	20.053	3.843	0.011
43.499	86.250	80.005	20.010	100.221	20.063	2.365	0.045
43.999	86.303	80.003	20.010	100.224	20.068	1.472	0.115
44.499	86.316	80.004	20.010	100.231	20.057	3.306	0.105
44.999	86.325	80.004	20.010	100.239	20.054	3.669	0.044
45.499	86.421	80.005	20.010	100.253	20.057	3.243	0.064
45.999	86.421	80.004	20.009	100.267	20.056	3.388	0.101
46.499	86.429	80.005	20.010	100.271	20.062	2.438	0.052
46.999	86.457	80.004	20.011	100.272	20.059	2.889	0.022
47.499	86.460	80.006	20.010	100.273	20.060	2.744	0.033
47.999	86.591	80.003	20.010	100.262	20.070	1.171	0.082
48.499	86.628	80.004	20.011	100.249	20.061	2.681	0.151
48.999	86.602	80.005	20.011	100.242	20.058	3.133	0.090
49.499	86.726	80.004	20.010	100.241	20.055	3.496	0.055
49.999	86.745	80.005	20.010	100.244	20.060	2.851	0.121
50.499	86.854	80.004	20.010	100.257	20.069	1.393	0.136
50.999	86.883	80.004	20.010	100.275	20.069	1.310	0.133
51.499	86.941	80.004	20.009	100.293	20.054	3.756	0.112
51.999	86.895	80.005	20.011	100.305	20.055	3.532	0.049
52.499	86.962	80.004	20.010	100.310	20.056	3.367	0.016
52.999	87.038	80.003	20.010	100.307	20.052	4.093	0.082
53.499	87.029	80.005	20.010	100.296	20.054	3.756	0.105
53.999	87.141	80.005	20.010	100.286	20.047	4.790	0.086
54.499	87.204	80.003	20.011	100.280	20.050	4.351	0.139
54.999	87.297	80.005	20.010	100.282	20.049	4.549	0.165
55.499	87.379	80.004	20.009	100.290	20.051	4.163	0.166
55.999	87.471	80.005	20.010	100.304	20.049	4.425	0.175
56.499	87.551	80.005	20.010	100.318	20.050	4.415	0.173
56.999	87.636	80.005	20.010	100.329	20.051	4.139	0.168
57.499	87.640	80.003	20.010	100.335	20.046	4.949	0.127
57.999	87.671	80.003	20.010	100.336	20.044	5.263	0.062
58.500	87.752	80.003	20.010	100.331	20.044	5.224	0.074
58.999	87.836	80.005	20.010	100.320	20.042	5.522	0.139
59.499	87.834	80.004	20.010	100.305	20.040	5.955	0.124
59.999	87.850	80.005	20.010	100.289	20.040	5.842	0.048
60.499	87.993	80.003	20.010	100.276	20.040	5.947	0.086
60.999	88.094	80.005	20.010	100.274	20.036	6.547	0.201
61.499	88.178	80.004	20.009	100.278	20.035	6.681	0.215
61.999	88.238	80.003	20.010	100.287	20.035	6.651	0.165
62.499	88.278	80.004	20.010	100.302	20.036	6.595	0.122
62.999	88.342	80.004	20.010	100.325	20.033	7.064	0.102
63.499	88.375	80.005	20.009	100.341	20.031	7.295	0.100
63.999	88.596	80.004	20.010	100.353	20.031	7.262	0.175
64.499	88.692	80.004	20.010	100.362	20.026	8.142	0.286
64.999	88.743	80.004	20.010	100.366	20.027	7.908	0.233
65.499	88.827	80.003	20.010	100.365	20.025	8.182	0.141
65.999	88.893	80.005	20.010	100.367	20.025	8.183	0.142
66.499	88.931	80.003	20.010	100.370	20.027	7.958	0.127
66.999	89.052	80.003	20.009	100.377	20.023	8.568	0.131
67.499	89.105	80.005	20.010	100.383	20.024	8.356	0.167
67.999	89.186	80.003	20.010	100.389	20.020	9.038	0.154
68.499	89.257	80.004	20.010	100.397	20.018	9.285	0.143
68.999	89.361	80.004	20.009	100.407	20.016	9.674	0.163
69.499	89.479	80.003	20.010	100.421	20.018	9.321	0.199
69.999	89.582	80.004	20.010	100.437	20.018	9.401	0.222
70.499	89.716	80.004	20.010	100.455	20.017	9.488	0.229
70.999	89.773	80.004	20.010	100.470	20.020	8.988	0.214
71.499	89.896	80.004	20.010	100.482	20.017	9.494	0.186
71.999	90.015	80.004	20.010	100.489	20.018	9.376	0.211
72.499	90.108	80.003	20.009	100.488	20.016	9.630	0.227
72.999	90.212	80.004	20.009	100.477	20.015	9.742	0.204
73.499	90.383	80.004	20.010	100.460	20.016	9.567	0.236
73.999	90.577	80.004	20.009	100.444	20.017	9.421	0.320
74.499	90.610	80.005	20.010	100.431	20.016	9.664	0.296
74.999	90.743	80.004	20.010	100.422	20.015	9.845	0.196
75.499	90.907	80.006	20.010	100.418	20.015	9.835	0.231
75.999	90.974	80.004	20.010	100.419	20.016	9.640	0.264
76.499	91.110	80.003	20.009	100.420	20.016	9.637	0.217
76.999	91.181	80.004	20.009	100.427	20.013	10.163	0.205
77.499	91.410	80.005	20.009	100.435	20.014	9.936	0.254
77.999	91.473	80.005	20.010	100.441	20.020	9.045	0.296
78.499	91.675	80.004	20.010	100.447	20.031	7.377	0.278
78.999	91.804	80.003	20.010	100.454	20.022	8.669	0.298
79.499	91.926	80.004	20.010	100.450	20.013	10.050	0.291
79.999	91.995	80.004	20.010	100.441	20.016	9.627	0.221
80.499	92.169	80.004	20.009	100.430	20.017	9.504	0.217
80.999	92.292	80.004	20.009	100.417	20.017	9.506	0.270
81.499	92.475	80.003	20.010	100.405	20.016	9.680	0.301
81.999	92.645	80.003	20.010	100.401	20.012	10.221	0.330
82.499	92.711	80.005	20.010	100.402	20.013	10.095	0.295
82.999	92.946	80.004	20.010	100.410	20.011	10.346	0.268
83.499	93.034	80.004	20.010	100.426	20.012	10.314	0.312
83.999	93.194	80.005	20.009	100.441	20.010	10.506	0.286
84.499	93.394	80.004	20.009	100.449	20.013	10.097	0.304
84.999	93.529	80.004	20.010	100.457	20.013	10.167	0.347
85.499	93.665	80.004	20.009	100.459	20.016	9.715	0.303
85.999	93.773	80.004	20.010	100.458	20.014	9.973	0.258
86.499	94.022	80.004	20.010	100.452	20.014	9.967	0.301
86.999	94.165	80.004	20.009	100.446	20.014	9.904	0.374
87.499	94.311	80.005	20.010	100.438	20.012	10.314	0.340
87.999	94.503	80.004	20.010	100.430	20.014	9.893	0.313
88.499	94.646	80.004	20.009	100.422	20.013	10.101	0.336
88.999	94.843	80.005	20.010	100.421	20.012	10.311	0.338
89.499	95.004	80.005	20.010	100.426	20.011	10.483	0.349
90.001	95.195	80.004	20.010	100.434	20.013	10.066	0.355
90.500	95.312	80.005	20.010	100.443	20.009	10.680	0.330
90.999	95.525	80.004	20.009	100.453	20.011	10.485	0.319
91.499	95.644	80.004	20.009	100.462	20.011	10.437	0.331
91.999	95.907	80.004	20.009	100.463	20.012	10.200	0.357
92.499	95.984	80.004	20.009	100.463	20.013	10.152	0.361
92.999	96.167	80.005	20.010	100.456	20.013	10.137	0.301
93.499	96.374	80.005	20.010	100.448	20.013	10.043	0.325
93.999	96.503	80.004	20.010	100.436	20.013	10.053	0.362
94.499	96.724	80.005	20.010	100.428	20.012	10.212	0.343
94.999	96.895	80.005	20.010	100.421	20.013	10.067	0.371
95.499	97.176	80.005	20.010	100.419	20.012	10.338	0.422
95.999	97.326	80.003	20.010	100.417	20.012	10.331	0.442
96.499	97.466	80.004	20.009	100.423	20.015	9.872	0.361
96.999	97.674	80.005	20.009	100.427	20.015	9.753	0.319
97.499	97.817	80.004	20.010	100.434	20.010	10.611	0.350
97.999	98.078	80.003	20.009	100.443	20.009	10.710	0.377
98.499	98.290	80.004	20.009	100.451	20.010	10.528	0.438
98.999	98.473	80.004	20.009	100.453	20.007	10.994	0.434
99.499	98.626	80.004	20.010	100.456	20.013	10.125	0.366
99.999	98.866	80.003	20.010	100.456	20.008	10.836	0.364
100.499	99.058	80.003	20.009	100.454	20.011	10.433	0.413
100.999	99.231	80.004	20.009	100.448	20.012	10.231	0.399
101.499	99.412	80.004	20.009	100.441	20.014	10.015	0.359
101.999	99.670	80.004	20.010	100.432	20.014	9.894	0.397
102.499	99.825	80.005	20.010	100.428	20.012	10.243	0.426
102.999	100.010	80.005	20.010	100.422	20.013	10.103	0.376
103.499	100.268	80.004	20.010	100.420	20.013	10.158	0.391
103.999	100.364	80.004	20.009	100.423	20.015	9.746	0.399
104.499	100.692	80.004	20.009	100.432	20.015	9.757	0.389
104.999	100.823	80.004	20.010	100.443	20.015	9.722	0.441
105.499	101.110	80.005	20.009	100.458	20.017	9.525	0.439
105.999	101.277	80.004	20.009	100.475	20.019	9.182	0.436
106.499	101.521	80.005	20.009	100.487	20.016	9.691	0.432
106.999	101.728	80.004	20.009	100.495	20.018	9.265	0.431
107.499	101.943	80.004	20.010	100.497	20.021	8.841	0.437
107.999	102.125	80.004	20.009	100.496	20.020	8.952	0.410
108.499	102.388	80.004	20.009	100.496	20.018	9.287	0.421
108.999	102.594	80.005	20.009	100.499	20.014	9.874	0.457
109.499	102.786	80.004	20.009	100.499	20.012	10.244	0.434
109.999	103.028	80.003	20.009	100.497	20.013	10.037	0.416
110.499	103.209	80.004	20.010	100.491	20.013	10.143	0.429
110.999	103.455	80.005	20.010	100.484	20.014	10.002	0.425
111.499	103.688	80.004	20.009	100.481	20.012	10.258	0.453
111.999	103.932	80.004	20.009	100.482	20.011	10.474	0.478
112.499	104.078	80.004	20.009	100.484	20.008	10.943	0.433
112.999	104.356	80.004	20.009	100.492	20.009	10.801	0.407
113.499	104.528	80.004	20.009	100.493	20.008	10.850	0.437
113.999	104.752	80.004	20.009	100.486	20.007	10.984	0.423
114.499	104.997	80.005	20.009	100.471	20.008	10.956	0.433
114.999	105.126	80.004	20.009	100.455	20.007	11.070	0.422
115.499	105.456	80.004	20.010	100.439	20.005	11.417	0.417
115.999	105.709	80.003	20.009	100.428	20.008	10.959	0.521
116.499	105.929	80.005	20.010	100.421	20.004	11.436	0.528
116.999	106.181	80.005	20.009	100.427	20.007	11.071	0.472
117.499	106.426	80.004	20.009	100.435	20.004	11.502	0.484
117.999	106.619	80.005	20.009	100.448	20.008	10.897	0.467
118.500	106.904	80.005	20.009	100.463	20.005	11.354	0.458
118.999	107.116	80.004	20.009	100.474	20.004	11.536	0.488
119.499	107.326	80.004	20.009	100.476	20.006	11.178	0.460
119.999	107.573	80.004	20.009	100.473	20.005	11.383	0.439
120.499	107.825	80.005	20.009	100.461	20.005	11.299	0.478
120.999	108.091	80.004	20.009	100.444	20.005	11.338	0.508
121.499	108.321	80.004	20.009	100.432	20.005	11.422	0.506
121.999	108.570	80.005	20.009	100.423	20.004	11.488	0.487
122.499	108.851	80.004	20.010	100.420	20.005	11.340	0.505
122.999	109.115	80.005	20.010	100.427	20.003	11.645	0.538
123.499	109.400	80.003	20.010	100.437	20.006	11.167	0.547
123.999	109.623	80.005	20.009	100.447	20.006	11.132	0.529
124.499	109.843	80.003	20.009	100.458	20.006	11.168	0.476
124.999	110.085	80.004	20.009	100.471	20.006	11.205	0.453
125.499	110.310	80.004	20.009	100.475	20.005	11.376	0.464
125.999	110.498	80.005	20.009	100.472	20.003	11.639	0.440
126.499	110.748	80.004	20.010	100.463	20.004	11.584	0.426
126.999	111.099	80.004	20.009	100.452	20.005	11.355	0.520
127.499	111.277	80.004	20.009	100.436	20.003	11.685	0.565
127.999	111.510	80.005	20.009	100.424	20.004	11.546	0.470
128.500	111.781	80.004	20.009	100.425	20.002	11.874	0.457
129.000	112.058	80.003	20.009	100.433	20.004	11.565	0.526
129.500	112.312	80.004	20.009	100.448	20.006	11.208	0.540
130.000	112.560	80.003	20.008	100.463	20.004	11.506	0.517
130.499	112.919	80.004	20.010	100.474	20.003	11.622	0.555
130.999	113.117	80.004	20.010	100.476	20.009	10.773	0.581
131.500	113.337	80.004	20.010	100.482	20.003	11.707	0.487
132.000	113.616	80.004	20.009	100.482	20.001	11.965	0.459
132.499	113.865	80.005	20.009	100.475	20.005	11.379	0.514
132.999	114.213	80.003	20.009	100.472	20.003	11.724	0.563
133.499	114.389	80.006	20.009	100.467	20.000	12.145	0.561
133.999	114.758	80.004	20.009	100.455	20.004	11.563	0.534
134.499	114.956	80.004	20.009	100.444	20.003	11.659	0.556
134.999	115.259	80.006	20.009	100.443	20.004	11.527	0.534
135.499	115.540	80.005	20.009	100.445	20.004	11.486	0.543
135.999	115.876	80.004	20.009	100.453	20.002	11.848	0.600
136.499	116.116	80.006	20.009	100.465	20.003	11.744	0.596
136.999	116.369	80.004	20.008	100.474	20.004	11.493	0.535
137.499	116.607	80.005	20.009	100.477	20.005	11.377	0.492
137.999	116.859	80.005	20.010	100.476	20.004	11.503	0.491
138.499	117.160	80.005	20.009	100.472	20.005	11.378	0.522
138.999	117.518	80.004	20.009	100.460	20.004	11.546	0.606
139.499	117.714	80.003	20.009	100.445	20.005	11.430	0.606
139.999	118.019	80.005	20.009	100.434	20.005	11.396	0.527
140.499	118.226	80.004	20.009	100.430	20.002	11.850	0.507
140.999	118.516	80.005	20.009	100.430	20.003	11.726	0.504
141.499	118.834	80.004	20.009	100.437	20.002	11.821	0.552
141.999	119.115	80.004	20.009	100.445	20.002	11.748	0.604
142.499	119.437	80.005	20.009	100.451	20.004	11.515	0.601
142.999	119.743	80.003	20.009	100.455	20.002	11.873	0.615
143.499	119.973	80.006	20.009	100.456	20.001	11.916	0.582
143.999	120.217	80.003	20.009	100.455	20.005	11.394	0.506
144.499	120.510	80.004	20.010	100.450	20.005	11.335	0.505
144.999	120.830	80.005	20.009	100.448	20.005	11.400	0.575
145.499	121.031	80.004	20.009	100.441	20.005	11.352	0.567
145.999	121.360	80.004	20.010	100.424	20.005	11.285	0.526
146.499	121.701	80.004	20.010	100.408	20.005	11.367	0.600
146.999	121.951	80.005	20.010	100.403	20.009	10.745	0.630
147.499	122.197	80.004	20.010	100.402	20.008	10.901	0.543
147.999	122.490	80.004	20.009	100.409	20.008	10.885	0.518
148.499	122.769	80.005	20.009	100.427	20.009	10.661	0.555
148.999	123.099	80.006	20.009	100.444	20.009	10.768	0.590
149.499	123.427	80.004	20.008	100.454	20.009	10.742	0.634
149.999	123.659	80.005	20.010	100.456	20.011	10.478	0.609
150.500	123.963	80.004	20.010	100.454	20.012	10.254	0.548
151.000	124.245	80.004	20.009	100.454	20.010	10.531	0.561
151.500	124.519	80.004	20.009	100.458	20.008	10.930	0.571
151.999	124.725	80.004	20.009	100.457	20.012	10.193	0.518
152.499	125.061	80.006	20.009	100.452	20.011	10.420	0.511
152.999	125.302	80.003	20.010	100.444	20.012	10.234	0.559
153.500	125.683	80.004	20.009	100.432	20.008	10.904	0.600
154.000	125.905	80.006	20.010	100.413	20.011	10.421	0.613
154.499	126.222	80.005	20.010	100.407	20.008	10.851	0.571
155.000	126.475	80.005	20.009	100.408	20.007	11.092	0.555
155.500	126.802	80.005	20.009	100.415	20.010	10.565	0.575
156.000	127.081	80.005	20.009	100.424	20.009	10.757	0.593
156.499	127.371	80.005	20.009	100.432	20.009	10.758	0.587
156.999	127.633	80.004	20.009	100.431	20.008	10.960	0.561
157.499	127.869	80.004	20.009	100.429	20.016	9.711	0.525
157.999	128.277	80.004	20.009	100.422	20.006	11.197	0.570
158.499	128.487	80.006	20.009	100.408	20.007	11.037	0.631
158.999	128.831	80.006	20.010	100.399	20.008	10.875	0.587
159.499	129.093	80.004	20.010	100.391	20.010	10.531	0.580
159.999	129.300	80.006	20.009	100.384	20.006	11.220	0.537
160.499	129.636	80.005	20.009	100.383	20.008	10.881	0.506
160.999	130.020	80.005	20.009	100.392	20.010	10.509	0.632
161.500	130.285	80.006	20.009	100.400	20.009	10.807	0.685
162.000	130.543	80.005	20.009	100.408	20.008	10.894	0.586
162.499	130.889	80.004	20.009	100.417	20.005	11.282	0.563
162.999	131.160	80.005	20.009	100.419	20.006	11.266	0.610
163.499	131.421	80.004	20.009	100.420	20.004	11.510	0.574
163.999	131.752	80.006	20.009	100.415	20.009	10.741	0.562
164.499	132.070	80.005	20.009	100.409	20.005	11.347	0.621
164.999	132.383	80.004	20.009	100.401	20.010	10.560	0.640
165.499	132.652	80.004	20.009	100.393	20.007	10.972	0.607
165.999	132.882	80.005	20.009	100.385	20.005	11.338	0.541
166.500	133.228	80.004	20.009	100.382	20.003	11.651	0.538
167.000	133.579	80.006	20.009	100.380	20.002	11.782	0.636
167.499	133.832	80.004	20.010	100.381	20.006	11.217	0.650
167.999	134.094	80.005	20.009	100.388	20.004	11.485	0.560
168.500	134.417	80.005	20.010	100.395	20.007	11.056	0.551
169.000	134.694	80.005	20.009	100.403	20.003	11.687	0.592
169.499	134.994	80.005	20.009	100.412	20.006	11.129	0.588
169.999	135.252	80.005	20.009	100.413	20.007	10.984	0.567
170.499	135.515	80.004	20.009	100.411	20.006	11.186	0.540
170.999	135.855	80.004	20.009	100.404	20.009	10.789	0.562
171.499	136.149	80.005	20.009	100.397	20.007	11.115	0.618
