Sample Weight (mg):	2.99
Heating Rate (C/s):	0.5
Combustor Temp (C):	900
N2 Flow Rate (cc/min):	80
O2 Flow Rate (cc/min):	20
Time (s)	Temperature (C)	N2 flow rate (cc/min)	O2 flow rate (cc/min)	Flow Rate (cc/min)	Oxygen (%)	HRR (W/g)	Heating rate (C/s)
-0.001	90.283	79.998	20.008	99.985	20.233	0.042	-0.020
0.500	90.257	79.998	20.008	99.984	20.232	0.184	-0.031
1.000	90.207	79.999	20.008	99.981	20.227	0.634	-0.062
1.500	90.147	79.999	20.008	99.980	20.227	0.634	-0.093
2.000	90.078	80.005	20.011	99.979	20.223	1.103	-0.120
2.500	90.063	80.000	20.008	99.982	20.219	1.553	-0.106
3.000	90.056	80.000	20.008	99.992	20.217	1.680	-0.053
3.500	89.972	80.002	20.007	100.012	20.213	2.112	-0.057
4.000	89.947	80.002	20.008	100.040	20.209	2.549	-0.100
4.500	89.855	80.001	20.007	100.079	20.206	2.853	-0.113
5.000	89.866	80.000	20.008	100.128	20.200	3.511	-0.099
5.500	89.807	80.001	20.008	100.183	20.194	4.142	-0.065
6.000	89.789	80.001	20.008	100.236	20.193	4.282	-0.063
6.500	89.803	80.002	20.008	100.292	20.187	4.865	-0.041
7.000	89.689	80.003	20.008	100.344	20.181	5.504	-0.052
7.500	89.657	80.001	20.008	100.391	20.180	5.564	-0.122
8.000	89.669	80.001	20.008	100.430	20.176	5.982	-0.083
8.500	89.633	80.001	20.008	100.459	20.175	6.138	-0.022
9.000	89.561	80.001	20.008	100.470	20.172	6.461	-0.066
9.500	89.574	80.003	20.008	100.474	20.171	6.539	-0.083
10.000	89.506	80.001	20.008	100.469	20.172	6.444	-0.057
10.500	89.515	80.002	20.008	100.466	20.168	6.846	-0.057
11.000	89.443	80.000	20.008	100.468	20.163	7.394	-0.061
11.500	89.423	80.002	20.007	100.474	20.159	7.802	-0.077
12.000	89.397	80.002	20.008	100.481	20.159	7.790	-0.069
12.500	89.338	80.001	20.008	100.489	20.156	8.105	-0.066
13.000	89.293	80.001	20.008	100.490	20.154	8.371	-0.095
13.500	89.260	80.001	20.008	100.486	20.153	8.504	-0.091
14.000	89.297	80.002	20.008	100.478	20.151	8.621	-0.037
14.500	89.228	80.002	20.008	100.477	20.151	8.628	-0.014
15.000	89.126	80.001	20.008	100.481	20.150	8.750	-0.102
15.500	89.187	80.002	20.008	100.490	20.148	8.975	-0.105
16.000	89.147	80.002	20.007	100.508	20.144	9.371	-0.010
16.500	89.132	80.000	20.008	100.524	20.145	9.267	-0.018
17.000	89.133	80.002	20.008	100.534	20.142	9.635	-0.035
17.500	89.075	80.002	20.008	100.533	20.143	9.518	-0.036
18.000	89.100	80.001	20.008	100.524	20.143	9.495	-0.045
18.500	89.048	80.001	20.008	100.515	20.141	9.686	-0.030
19.000	89.076	80.001	20.008	100.513	20.139	9.945	-0.025
19.500	89.044	80.001	20.008	100.512	20.138	10.082	-0.014
20.000	89.092	80.000	20.007	100.523	20.136	10.230	0.006
20.500	89.055	80.002	20.008	100.539	20.136	10.194	0.013
21.000	89.030	80.002	20.008	100.556	20.133	10.587	-0.026
21.500	89.010	80.001	20.008	100.571	20.132	10.666	-0.054
22.000	89.021	80.002	20.008	100.584	20.130	10.910	-0.027
22.500	89.069	80.001	20.008	100.590	20.130	10.841	0.025
23.000	89.007	80.002	20.008	100.596	20.131	10.820	0.023
23.500	89.039	80.001	20.008	100.600	20.133	10.542	-0.022
24.000	89.052	80.002	20.008	100.602	20.131	10.747	0.007
24.500	89.058	80.001	20.008	100.607	20.129	10.939	0.032
25.000	89.053	80.001	20.007	100.617	20.129	11.010	0.010
25.500	89.083	80.001	20.008	100.619	20.130	10.897	0.013
26.000	89.106	80.002	20.008	100.617	20.131	10.753	0.039
26.500	89.126	80.001	20.008	100.616	20.129	10.985	0.048
27.000	89.119	80.001	20.008	100.614	20.130	10.870	0.028
27.500	89.101	80.001	20.008	100.609	20.130	10.899	-0.006
28.000	89.118	80.001	20.008	100.617	20.128	11.059	-0.013
28.500	89.176	80.002	20.008	100.628	20.130	10.879	0.037
29.000	89.176	80.001	20.008	100.635	20.127	11.150	0.067
29.500	89.176	80.001	20.008	100.635	20.129	10.936	0.029
30.000	89.223	80.000	20.008	100.630	20.128	11.044	0.024
30.500	89.257	80.002	20.008	100.621	20.125	11.392	0.064
31.000	89.290	80.001	20.008	100.612	20.125	11.434	0.074
31.500	89.250	80.002	20.008	100.612	20.124	11.498	0.030
32.000	89.350	80.001	20.008	100.624	20.123	11.610	0.026
32.499	89.418	80.001	20.008	100.642	20.121	11.779	0.114
32.999	89.450	80.001	20.007	100.659	20.120	11.969	0.134
33.499	89.466	80.001	20.008	100.675	20.119	12.013	0.073
33.999	89.524	80.000	20.008	100.682	20.119	12.017	0.061
34.499	89.567	80.002	20.008	100.685	20.118	12.182	0.088
34.999	89.588	80.001	20.008	100.684	20.117	12.249	0.083
35.499	89.670	80.002	20.008	100.690	20.117	12.241	0.083
35.999	89.722	80.000	20.008	100.699	20.114	12.605	0.119
36.499	89.782	80.001	20.008	100.709	20.115	12.485	0.123
36.999	89.862	80.001	20.008	100.722	20.113	12.717	0.126
37.499	89.916	80.003	20.008	100.732	20.113	12.642	0.137
37.999	89.944	80.000	20.008	100.733	20.114	12.515	0.108
38.499	90.026	80.001	20.008	100.732	20.113	12.696	0.096
38.999	90.082	80.001	20.008	100.731	20.110	12.935	0.124
39.499	90.201	80.001	20.008	100.725	20.112	12.756	0.156
39.999	90.243	80.001	20.008	100.725	20.107	13.282	0.168
40.499	90.340	80.000	20.008	100.726	20.108	13.166	0.150
40.999	90.406	80.002	20.008	100.727	20.107	13.278	0.151
41.499	90.497	80.002	20.008	100.727	20.108	13.230	0.160
41.999	90.611	80.002	20.008	100.728	20.107	13.268	0.181
42.499	90.643	80.001	20.008	100.726	20.108	13.149	0.175
42.999	90.727	80.002	20.008	100.718	20.109	13.099	0.130
43.499	90.863	80.001	20.009	100.710	20.107	13.278	0.168
43.999	90.905	80.001	20.009	100.704	20.110	13.027	0.199
44.499	90.995	80.002	20.008	100.706	20.107	13.270	0.155
44.999	91.114	80.001	20.008	100.715	20.108	13.227	0.171
45.500	91.201	80.000	20.009	100.730	20.107	13.271	0.208
46.000	91.292	80.000	20.008	100.746	20.107	13.343	0.192
46.500	91.382	80.002	20.008	100.755	20.108	13.204	0.179
47.000	91.540	80.001	20.008	100.753	20.107	13.296	0.214
47.499	91.603	80.002	20.008	100.740	20.107	13.317	0.235
47.999	91.716	80.000	20.008	100.725	20.107	13.327	0.199
48.500	91.817	80.002	20.008	100.714	20.107	13.264	0.195
49.001	91.907	80.001	20.008	100.711	20.107	13.247	0.202
49.500	92.016	80.000	20.008	100.713	20.106	13.443	0.195
49.999	92.147	80.002	20.008	100.718	20.106	13.446	0.220
50.499	92.250	80.000	20.008	100.726	20.106	13.371	0.237
51.000	92.369	80.002	20.008	100.721	20.108	13.195	0.228
51.500	92.527	80.002	20.008	100.712	20.107	13.298	0.250
51.999	92.638	80.003	20.008	100.704	20.110	13.000	0.273
52.500	92.785	80.001	20.008	100.696	20.109	13.051	0.263
53.001	92.875	80.000	20.008	100.696	20.110	12.952	0.248
53.500	93.022	80.002	20.007	100.705	20.113	12.692	0.237
53.999	93.187	80.002	20.008	100.714	20.111	12.858	0.275
54.499	93.289	80.000	20.008	100.720	20.112	12.823	0.290
55.000	93.410	80.002	20.008	100.720	20.108	13.156	0.244
55.500	93.515	80.003	20.008	100.713	20.108	13.153	0.224
55.999	93.637	80.001	20.008	100.703	20.110	12.983	0.227
56.499	93.795	80.001	20.008	100.695	20.109	13.116	0.253
56.999	93.897	80.002	20.008	100.695	20.109	13.114	0.270
57.500	94.050	80.000	20.008	100.703	20.109	13.071	0.258
58.000	94.225	80.001	20.008	100.712	20.111	12.832	0.291
58.499	94.367	80.001	20.008	100.728	20.111	12.932	0.323
58.999	94.509	80.001	20.008	100.738	20.108	13.178	0.301
59.499	94.633	80.001	20.008	100.740	20.113	12.688	0.275
59.999	94.845	80.002	20.008	100.733	20.111	12.862	0.301
60.500	94.982	80.001	20.008	100.724	20.111	12.854	0.342
61.000	95.141	80.000	20.008	100.715	20.112	12.780	0.322
61.499	95.269	80.002	20.007	100.713	20.111	12.912	0.291
61.999	95.449	80.000	20.008	100.713	20.112	12.791	0.297
62.499	95.529	80.001	20.008	100.722	20.111	12.873	0.284
62.999	95.742	80.001	20.008	100.728	20.113	12.718	0.277
63.499	95.869	80.002	20.008	100.730	20.113	12.697	0.316
63.999	95.997	80.001	20.008	100.723	20.110	13.011	0.297
64.499	96.138	80.002	20.008	100.716	20.113	12.677	0.262
64.999	96.301	80.001	20.008	100.710	20.112	12.725	0.287
65.499	96.507	80.000	20.008	100.712	20.109	13.059	0.337
65.999	96.651	80.002	20.008	100.719	20.110	13.025	0.359
66.500	96.834	80.001	20.008	100.734	20.112	12.769	0.338
67.001	96.993	80.001	20.008	100.747	20.110	13.019	0.335
67.500	97.149	80.000	20.008	100.751	20.109	13.068	0.328
67.999	97.363	80.001	20.008	100.749	20.110	12.947	0.342
68.499	97.517	80.001	20.008	100.743	20.111	12.909	0.369
68.999	97.706	80.000	20.008	100.734	20.111	12.891	0.356
69.499	97.896	80.003	20.008	100.728	20.110	12.989	0.362
69.999	98.101	80.002	20.008	100.734	20.111	12.860	0.387
70.499	98.248	80.001	20.008	100.741	20.111	12.846	0.373
70.999	98.386	80.001	20.008	100.749	20.112	12.814	0.319
71.499	98.557	80.003	20.008	100.750	20.111	12.847	0.297
71.999	98.763	80.001	20.008	100.750	20.109	13.055	0.342
72.500	98.964	80.002	20.008	100.738	20.109	13.125	0.392
73.000	99.133	80.001	20.008	100.727	20.111	12.924	0.389
73.499	99.351	80.001	20.008	100.719	20.109	13.089	0.379
73.999	99.534	80.001	20.008	100.724	20.110	12.967	0.394
74.499	99.742	80.000	20.008	100.732	20.110	12.980	0.396
74.999	99.931	80.003	20.008	100.748	20.109	13.124	0.394
75.499	100.126	80.002	20.008	100.760	20.109	13.056	0.390
75.999	100.310	80.001	20.008	100.764	20.107	13.264	0.382
76.499	100.515	80.002	20.008	100.758	20.110	12.952	0.384
76.999	100.722	80.001	20.009	100.748	20.110	13.028	0.400
77.499	100.900	80.002	20.008	100.738	20.111	12.925	0.398
77.999	101.113	80.002	20.008	100.732	20.110	12.940	0.388
78.499	101.353	80.003	20.008	100.737	20.108	13.147	0.422
78.999	101.571	80.000	20.008	100.753	20.110	13.028	0.455
79.499	101.746	80.002	20.008	100.764	20.109	13.065	0.426
79.999	101.969	80.002	20.008	100.772	20.110	13.021	0.396
80.499	102.124	80.001	20.008	100.774	20.106	13.366	0.388
81.000	102.359	80.002	20.008	100.765	20.108	13.156	0.384
81.500	102.582	80.001	20.009	100.749	20.108	13.202	0.424
81.999	102.721	80.001	20.008	100.744	20.110	12.995	0.410
82.499	102.971	80.001	20.008	100.744	20.108	13.231	0.376
82.999	103.216	80.001	20.008	100.749	20.108	13.246	0.442
83.499	103.422	80.002	20.008	100.756	20.108	13.166	0.473
84.000	103.608	80.002	20.009	100.764	20.108	13.236	0.422
84.500	103.825	80.001	20.008	100.767	20.106	13.439	0.398
84.999	104.082	80.002	20.008	100.760	20.109	13.132	0.438
85.499	104.286	80.002	20.008	100.752	20.105	13.470	0.468
85.999	104.529	80.003	20.008	100.745	20.107	13.344	0.454
86.499	104.727	80.001	20.008	100.744	20.107	13.259	0.444
86.999	104.956	80.001	20.008	100.745	20.103	13.748	0.434
87.499	105.176	80.002	20.008	100.759	20.105	13.477	0.438
87.999	105.383	80.001	20.008	100.775	20.105	13.476	0.438
88.499	105.653	80.002	20.008	100.782	20.108	13.248	0.452
88.999	105.799	80.001	20.008	100.780	20.105	13.550	0.447
89.499	106.092	80.002	20.008	100.773	20.102	13.796	0.428
90.000	106.307	80.002	20.008	100.757	20.103	13.740	0.473
90.500	106.493	80.001	20.008	100.748	20.105	13.481	0.454
90.999	106.766	80.002	20.008	100.747	20.104	13.633	0.430
91.499	107.004	80.001	20.008	100.750	20.106	13.412	0.485
91.999	107.191	80.002	20.008	100.759	20.102	13.775	0.468
92.499	107.491	80.001	20.008	100.767	20.103	13.718	0.456
92.999	107.730	80.002	20.008	100.768	20.103	13.743	0.513
93.499	107.986	80.002	20.008	100.761	20.103	13.694	0.517
94.000	108.194	80.001	20.008	100.752	20.103	13.715	0.479
94.500	108.411	80.003	20.008	100.743	20.105	13.473	0.444
94.999	108.699	80.002	20.008	100.740	20.105	13.513	0.465
95.499	108.888	80.001	20.008	100.742	20.106	13.426	0.491
95.999	109.227	80.001	20.008	100.757	20.102	13.800	0.502
96.499	109.437	80.002	20.008	100.773	20.102	13.868	0.538
97.000	109.690	80.000	20.008	100.784	20.103	13.760	0.506
97.500	109.965	80.002	20.008	100.788	20.102	13.849	0.496
97.999	110.198	80.002	20.008	100.784	20.102	13.790	0.518
98.499	110.539	80.002	20.008	100.772	20.102	13.865	0.541
98.999	110.777	80.000	20.008	100.759	20.106	13.384	0.576
99.499	110.996	80.002	20.008	100.756	20.104	13.635	0.518
99.999	111.247	80.000	20.008	100.760	20.103	13.673	0.463
100.499	111.502	80.002	20.008	100.770	20.108	13.225	0.488
100.999	111.741	80.001	20.008	100.783	20.107	13.304	0.500
101.499	112.018	80.001	20.008	100.792	20.108	13.193	0.505
101.999	112.305	80.002	20.008	100.792	20.106	13.452	0.540
102.499	112.553	80.001	20.007	100.783	20.108	13.162	0.550
102.999	112.825	80.002	20.008	100.767	20.109	13.054	0.527
103.500	113.089	80.003	20.008	100.753	20.109	13.106	0.528
104.000	113.349	80.000	20.008	100.748	20.108	13.215	0.530
104.499	113.609	80.002	20.008	100.750	20.109	13.066	0.522
105.000	113.866	80.001	20.007	100.758	20.109	13.035	0.519
105.501	114.123	80.002	20.008	100.766	20.110	12.989	0.515
106.000	114.434	80.001	20.007	100.773	20.110	12.971	0.541
106.499	114.620	80.001	20.008	100.767	20.109	13.049	0.532
106.999	114.961	80.001	20.008	100.758	20.109	13.035	0.512
107.500	115.271	80.003	20.008	100.747	20.110	13.029	0.589
108.000	115.504	80.000	20.008	100.742	20.109	13.066	0.597
108.499	115.778	80.002	20.008	100.741	20.111	12.882	0.525
108.999	116.094	80.001	20.008	100.747	20.109	13.122	0.549
109.500	116.367	80.001	20.007	100.756	20.112	12.796	0.589
110.000	116.661	80.001	20.008	100.763	20.110	12.987	0.578
110.499	116.902	80.002	20.008	100.765	20.112	12.788	0.551
110.999	117.192	80.004	20.008	100.757	20.111	12.891	0.533
111.499	117.491	80.002	20.008	100.749	20.115	12.403	0.559
111.999	117.761	80.002	20.008	100.741	20.113	12.687	0.579
112.499	118.006	80.001	20.008	100.740	20.112	12.721	0.542
113.000	118.273	80.002	20.008	100.744	20.115	12.491	0.513
113.500	118.592	80.003	20.008	100.751	20.113	12.664	0.549
113.999	118.884	80.002	20.007	100.759	20.113	12.626	0.599
114.499	119.165	80.001	20.007	100.763	20.114	12.576	0.593
114.999	119.445	80.001	20.008	100.757	20.113	12.655	0.567
115.499	119.699	80.002	20.008	100.745	20.111	12.821	0.547
115.999	120.025	80.001	20.008	100.733	20.115	12.499	0.557
116.499	120.301	80.000	20.008	100.726	20.113	12.707	0.591
116.999	120.645	80.002	20.008	100.722	20.114	12.586	0.611
117.500	120.964	80.002	20.008	100.723	20.113	12.637	0.641
118.000	121.228	80.001	20.007	100.727	20.115	12.449	0.623
118.499	121.509	80.001	20.008	100.730	20.113	12.664	0.564
118.999	121.807	80.002	20.008	100.731	20.113	12.685	0.563
119.499	122.083	80.001	20.008	100.728	20.114	12.564	0.577
119.999	122.388	80.001	20.008	100.724	20.114	12.558	0.577
120.499	122.686	80.001	20.008	100.725	20.113	12.619	0.592
120.999	122.952	80.002	20.008	100.726	20.115	12.465	0.584
121.499	123.259	80.002	20.008	100.727	20.115	12.444	0.569
121.999	123.588	80.000	20.008	100.730	20.116	12.301	0.604
122.499	123.867	80.002	20.008	100.732	20.116	12.358	0.622
122.999	124.223	80.001	20.008	100.728	20.118	12.179	0.622
123.499	124.435	80.001	20.008	100.720	20.116	12.387	0.602
123.999	124.757	80.002	20.008	100.713	20.117	12.243	0.551
124.499	125.039	80.000	20.008	100.711	20.118	12.108	0.569
124.999	125.358	80.002	20.008	100.711	20.118	12.120	0.603
125.499	125.624	80.001	20.008	100.714	20.116	12.378	0.593
126.000	125.922	80.002	20.007	100.721	20.118	12.161	0.574
126.500	126.258	80.002	20.008	100.725	20.117	12.259	0.599
126.999	126.566	80.001	20.008	100.719	20.119	12.053	0.639
127.499	126.848	80.003	20.008	100.710	20.118	12.135	0.617
127.999	127.117	80.001	20.008	100.702	20.120	11.886	0.570
128.500	127.449	80.002	20.008	100.700	20.119	12.019	0.576
129.000	127.733	80.001	20.008	100.703	20.120	11.960	0.609
129.500	128.012	80.002	20.008	100.710	20.120	11.943	0.589
130.000	128.321	80.002	20.008	100.718	20.121	11.782	0.576
130.500	128.615	80.001	20.007	100.718	20.120	11.903	0.596
131.000	128.940	80.002	20.008	100.712	20.120	11.938	0.611
131.500	129.209	80.000	20.008	100.703	20.120	11.921	0.606
132.000	129.487	80.002	20.008	100.695	20.122	11.750	0.571
132.501	129.807	80.001	20.008	100.688	20.123	11.652	0.572
133.001	130.104	80.000	20.007	100.695	20.123	11.611	0.607
133.500	130.376	80.001	20.008	100.703	20.124	11.468	0.593
134.000	130.663	80.002	20.007	100.712	20.122	11.686	0.564
134.500	130.972	80.002	20.008	100.719	20.122	11.668	0.578
135.000	131.269	80.002	20.008	100.718	20.124	11.483	0.601
135.500	131.583	80.001	20.008	100.710	20.123	11.573	0.608
136.000	131.914	80.000	20.008	100.702	20.123	11.612	0.628
136.500	132.178	80.001	20.008	100.695	20.123	11.644	0.620
137.000	132.478	80.001	20.008	100.694	20.122	11.751	0.579
137.500	132.798	80.001	20.008	100.702	20.124	11.512	0.592
138.000	133.108	80.002	20.007	100.709	20.123	11.607	0.625
138.500	133.398	80.002	20.008	100.713	20.120	11.895	0.615
139.000	133.706	80.001	20.008	100.711	20.122	11.674	0.599
139.500	134.052	80.002	20.008	100.697	20.124	11.511	0.625
140.000	134.302	80.000	20.008	100.683	20.121	11.812	0.625
140.500	134.641	80.001	20.008	100.667	20.123	11.623	0.593
141.000	134.906	80.001	20.008	100.662	20.123	11.573	0.596
141.500	135.208	80.001	20.008	100.663	20.124	11.536	0.586
142.000	135.547	80.002	20.008	100.671	20.123	11.628	0.604
142.500	135.808	80.002	20.008	100.678	20.122	11.719	0.620
143.000	136.139	80.002	20.008	100.683	20.123	11.656	0.597
143.500	136.396	80.001	20.008	100.677	20.122	11.688	0.590
144.000	136.714	80.001	20.008	100.668	20.123	11.607	0.581
144.500	137.049	80.001	20.008	100.660	20.124	11.534	0.614
145.000	137.303	80.001	20.008	100.653	20.126	11.315	0.621
145.500	137.595	80.002	20.008	100.653	20.123	11.645	0.568
146.000	137.924	80.002	20.008	100.661	20.124	11.543	0.583
146.500	138.166	80.001	20.007	100.670	20.123	11.605	0.596
147.000	138.533	80.002	20.008	100.674	20.127	11.215	0.591
147.500	138.812	80.001	20.008	100.675	20.124	11.531	0.628
148.000	139.143	80.002	20.008	100.670	20.127	11.227	0.628
148.500	139.449	80.001	20.008	100.661	20.126	11.321	0.623
149.000	139.757	80.002	20.008	100.656	20.127	11.168	0.626
149.500	140.032	80.001	20.008	100.659	20.126	11.266	0.598
150.000	140.343	80.000	20.007	100.667	20.128	11.061	0.584
150.500	140.648	80.003	20.007	100.675	20.127	11.154	0.601
151.000	141.002	80.002	20.007	100.683	20.127	11.188	0.638
151.500	141.264	80.002	20.007	100.682	20.127	11.145	0.637
152.000	141.551	80.001	20.008	100.674	20.127	11.202	0.582
152.500	141.807	80.003	20.008	100.667	20.128	11.129	0.546
153.000	142.163	80.000	20.008	100.659	20.128	11.121	0.578
153.500	142.486	80.002	20.008	100.654	20.127	11.237	0.646
154.000	142.778	80.001	20.008	100.660	20.127	11.140	0.647
154.500	143.011	80.003	20.008	100.667	20.129	11.022	0.570
155.000	143.322	80.002	20.008	100.673	20.128	11.055	0.534
155.500	143.675	80.001	20.007	100.674	20.129	11.019	0.604
156.000	143.937	80.002	20.007	100.667	20.131	10.727	0.639
156.500	144.235	80.001	20.008	100.656	20.128	11.029	0.587
157.000	144.506	80.001	20.008	100.648	20.129	10.944	0.565
157.500	144.831	80.003	20.008	100.647	20.131	10.738	0.583
158.000	145.144	80.001	20.008	100.654	20.129	11.002	0.617
158.500	145.412	80.002	20.007	100.666	20.129	10.924	0.609
159.000	145.675	80.002	20.008	100.670	20.129	10.932	0.555
159.500	145.979	80.002	20.008	100.667	20.131	10.716	0.549
160.000	146.330	80.002	20.008	100.655	20.131	10.776	0.611
160.500	146.574	80.000	20.009	100.639	20.128	11.059	0.625
161.000	146.864	80.002	20.008	100.627	20.133	10.512	0.564
161.500	147.197	80.002	20.008	100.627	20.132	10.657	0.579
162.000	147.474	80.001	20.008	100.631	20.132	10.634	0.617
162.500	147.720	80.001	20.008	100.639	20.133	10.542	0.567
163.000	148.045	80.001	20.007	100.646	20.132	10.641	0.547
163.500	148.325	80.002	20.008	100.643	20.133	10.591	0.587
164.000	148.615	80.002	20.008	100.636	20.131	10.808	0.588
164.500	148.933	80.002	20.008	100.627	20.133	10.529	0.589
165.000	149.242	80.001	20.008	100.621	20.133	10.526	0.618
165.500	149.496	80.001	20.008	100.622	20.136	10.236	0.595
166.000	149.806	80.002	20.008	100.629	20.134	10.442	0.563
166.500	150.114	80.002	20.008	100.637	20.133	10.572	0.591
167.000	150.378	80.002	20.008	100.641	20.135	10.329	0.596
167.500	150.648	80.003	20.008	100.639	20.131	10.716	0.553
168.000	150.942	80.000	20.008	100.632	20.132	10.636	0.548
168.500	151.243	80.001	20.008	100.625	20.132	10.641	0.579
169.000	151.554	80.001	20.008	100.619	20.131	10.806	0.603
169.500	151.776	80.001	20.007	100.622	20.130	10.847	0.573
